Position	1000mA
Distance/mm	U/V

-6.999	0.61
-6.997	0.61
-6.996	0.61
-6.995	0.61
-6.993	0.61
-6.991	0.61
-6.990	0.61
-6.989	0.61
-6.987	0.61
-6.985	0.61
-6.984	0.61
-6.983	0.62
-6.981	0.62
-6.979	0.62
-6.978	0.63
-6.977	0.63
-6.975	0.62
-6.973	0.62
-6.972	0.62
-6.970	0.61
-6.969	0.61
-6.968	0.61
-6.966	0.60
-6.964	0.60
-6.963	0.60
-6.962	0.60
-6.960	0.60
-6.958	0.60
-6.957	0.59
-6.956	0.60
-6.954	0.59
-6.952	0.59
-6.951	0.59
-6.950	0.59
-6.948	0.59
-6.946	0.59
-6.945	0.59
-6.944	0.59
-6.942	0.59
-6.940	0.58
-6.939	0.58
-6.938	0.58
-6.936	0.58
-6.935	0.58
-6.933	0.58
-6.931	0.58
-6.930	0.58
-6.929	0.58
-6.927	0.58
-6.925	0.58
-6.924	0.58
-6.923	0.57
-6.921	0.57
-6.919	0.57
-6.918	0.57
-6.917	0.57
-6.915	0.57
-6.913	0.57
-6.912	0.57
-6.911	0.57
-6.909	0.57
-6.907	0.57
-6.906	0.57
-6.905	0.57
-6.903	0.57
-6.902	0.57
-6.900	0.56
-6.898	0.56
-6.897	0.56
-6.896	0.56
-6.894	0.56
-6.892	0.56
-6.891	0.56
-6.890	0.56
-6.888	0.56
-6.886	0.56
-6.885	0.56
-6.884	0.56
-6.882	0.56
-6.880	0.56
-6.879	0.55
-6.878	0.56
-6.876	0.55
-6.874	0.55
-6.873	0.55
-6.872	0.55
-6.870	0.55
-6.869	0.55
-6.867	0.55
-6.865	0.55
-6.864	0.55
-6.863	0.55
-6.861	0.55
-6.859	0.55
-6.858	0.55
-6.857	0.55
-6.855	0.54
-6.853	0.55
-6.852	0.54
-6.851	0.54
-6.849	0.54
-6.847	0.54
-6.846	0.54
-6.845	0.54
-6.843	0.54
-6.841	0.54
-6.840	0.54
-6.839	0.54
-6.837	0.54
-6.835	0.54
-6.834	0.54
-6.832	0.54
-6.831	0.54
-6.830	0.54
-6.828	0.54
-6.826	0.54
-6.825	0.54
-6.824	0.54
-6.822	0.54
-6.820	0.54
-6.819	0.53
-6.818	0.54
-6.816	0.53
-6.814	0.53
-6.813	0.53
-6.812	0.53
-6.810	0.53
-6.808	0.53
-6.807	0.53
-6.806	0.53
-6.804	0.53
-6.802	0.53
-6.801	0.53
-6.799	0.53
-6.798	0.53
-6.797	0.53
-6.795	0.53
-6.793	0.53
-6.792	0.53
-6.791	0.53
-6.789	0.53
-6.787	0.53
-6.786	0.53
-6.785	0.53
-6.783	0.53
-6.781	0.53
-6.780	0.53
-6.779	0.53
-6.777	0.52
-6.775	0.52
-6.774	0.52
-6.773	0.52
-6.771	0.52
-6.769	0.52
-6.768	0.52
-6.766	0.52
-6.765	0.52
-6.764	0.52
-6.762	0.52
-6.760	0.52
-6.759	0.51
-6.758	0.52
-6.756	0.51
-6.754	0.52
-6.753	0.51
-6.752	0.51
-6.750	0.51
-6.748	0.51
-6.747	0.51
-6.746	0.51
-6.744	0.51
-6.742	0.51
-6.741	0.51
-6.740	0.51
-6.738	0.51
-6.736	0.51
-6.735	0.51
-6.734	0.51
-6.732	0.51
-6.731	0.51
-6.729	0.51
-6.727	0.51
-6.726	0.51
-6.725	0.51
-6.723	0.51
-6.721	0.51
-6.720	0.51
-6.719	0.51
-6.717	0.51
-6.715	0.51
-6.714	0.51
-6.713	0.51
-6.711	0.51
-6.709	0.51
-6.708	0.51
-6.707	0.51
-6.705	0.51
-6.703	0.51
-6.702	0.51
-6.701	0.51
-6.699	0.51
-6.698	0.51
-6.696	0.51
-6.694	0.51
-6.693	0.51
-6.692	0.51
-6.690	0.51
-6.688	0.51
-6.687	0.51
-6.686	0.51
-6.684	0.51
-6.682	0.51
-6.681	0.51
-6.680	0.51
-6.678	0.51
-6.676	0.51
-6.675	0.51
-6.674	0.51
-6.672	0.51
-6.670	0.51
-6.669	0.52
-6.668	0.52
-6.666	0.52
-6.665	0.52
-6.663	0.52
-6.661	0.52
-6.660	0.51
-6.659	0.52
-6.657	0.52
-6.655	0.52
-6.654	0.52
-6.653	0.52
-6.651	0.52
-6.649	0.52
-6.648	0.52
-6.647	0.52
-6.645	0.52
-6.643	0.52
-6.642	0.52
-6.641	0.52
-6.639	0.52
-6.637	0.52
-6.636	0.52
-6.635	0.52
-6.633	0.52
-6.631	0.52
-6.630	0.52
-6.628	0.52
-6.627	0.52
-6.626	0.52
-6.624	0.52
-6.622	0.52
-6.621	0.52
-6.620	0.52
-6.618	0.52
-6.616	0.52
-6.615	0.52
-6.614	0.52
-6.612	0.52
-6.610	0.52
-6.609	0.52
-6.608	0.52
-6.606	0.52
-6.604	0.52
-6.603	0.52
-6.602	0.52
-6.600	0.52
-6.598	0.52
-6.597	0.52
-6.595	0.52
-6.594	0.52
-6.593	0.52
-6.591	0.52
-6.589	0.52
-6.588	0.52
-6.587	0.52
-6.585	0.52
-6.583	0.52
-6.582	0.52
-6.581	0.51
-6.579	0.52
-6.577	0.52
-6.576	0.52
-6.575	0.51
-6.573	0.52
-6.571	0.52
-6.570	0.52
-6.569	0.52
-6.567	0.52
-6.565	0.52
-6.564	0.51
-6.563	0.52
-6.561	0.52
-6.560	0.52
-6.558	0.51
-6.556	0.52
-6.555	0.52
-6.554	0.52
-6.552	0.52
-6.550	0.52
-6.549	0.52
-6.548	0.52
-6.546	0.52
-6.544	0.51
-6.543	0.51
-6.542	0.51
-6.540	0.51
-6.538	0.51
-6.537	0.51
-6.536	0.51
-6.534	0.51
-6.532	0.51
-6.531	0.51
-6.530	0.51
-6.528	0.51
-6.527	0.51
-6.525	0.51
-6.523	0.51
-6.522	0.51
-6.521	0.51
-6.519	0.51
-6.517	0.51
-6.516	0.51
-6.515	0.51
-6.513	0.51
-6.511	0.51
-6.510	0.51
-6.509	0.51
-6.507	0.51
-6.505	0.51
-6.504	0.51
-6.503	0.51
-6.501	0.51
-6.499	0.51
-6.498	0.51
-6.497	0.51
-6.495	0.51
-6.494	0.51
-6.492	0.51
-6.490	0.51
-6.489	0.51
-6.488	0.51
-6.486	0.51
-6.484	0.51
-6.483	0.51
-6.482	0.51
-6.480	0.50
-6.478	0.51
-6.477	0.50
-6.476	0.51
-6.474	0.50
-6.472	0.51
-6.471	0.51
-6.470	0.51
-6.468	0.50
-6.466	0.50
-6.465	0.50
-6.464	0.50
-6.462	0.50
-6.460	0.50
-6.459	0.50
-6.457	0.50
-6.456	0.50
-6.455	0.50
-6.453	0.50
-6.451	0.51
-6.450	0.50
-6.449	0.50
-6.447	0.50
-6.445	0.50
-6.444	0.50
-6.443	0.50
-6.441	0.50
-6.439	0.50
-6.438	0.50
-6.437	0.50
-6.435	0.50
-6.433	0.50
-6.432	0.50
-6.431	0.50
-6.429	0.50
-6.427	0.50
-6.426	0.50
-6.424	0.50
-6.423	0.50
-6.422	0.50
-6.420	0.50
-6.418	0.50
-6.417	0.50
-6.416	0.50
-6.414	0.50
-6.412	0.50
-6.411	0.50
-6.410	0.50
-6.408	0.50
-6.406	0.50
-6.405	0.50
-6.404	0.50
-6.402	0.50
-6.400	0.50
-6.399	0.50
-6.398	0.50
-6.396	0.50
-6.394	0.50
-6.393	0.50
-6.391	0.50
-6.390	0.50
-6.389	0.50
-6.387	0.50
-6.385	0.50
-6.384	0.50
-6.383	0.50
-6.381	0.50
-6.379	0.50
-6.378	0.50
-6.377	0.50
-6.375	0.50
-6.373	0.50
-6.372	0.50
-6.371	0.50
-6.369	0.50
-6.367	0.50
-6.366	0.50
-6.365	0.49
-6.363	0.50
-6.361	0.50
-6.360	0.50
-6.359	0.50
-6.357	0.50
-6.356	0.50
-6.354	0.50
-6.352	0.50
-6.351	0.50
-6.350	0.50
-6.348	0.50
-6.346	0.50
-6.345	0.50
-6.344	0.50
-6.342	0.50
-6.340	0.50
-6.339	0.50
-6.338	0.50
-6.336	0.50
-6.334	0.50
-6.333	0.50
-6.332	0.50
-6.330	0.50
-6.328	0.50
-6.327	0.50
-6.326	0.50
-6.324	0.50
-6.323	0.50
-6.321	0.50
-6.319	0.50
-6.318	0.50
-6.317	0.50
-6.315	0.50
-6.313	0.50
-6.312	0.50
-6.311	0.50
-6.309	0.50
-6.307	0.50
-6.306	0.50
-6.305	0.50
-6.303	0.50
-6.301	0.50
-6.300	0.50
-6.299	0.50
-6.297	0.50
-6.295	0.50
-6.294	0.50
-6.293	0.50
-6.291	0.50
-6.290	0.50
-6.288	0.50
-6.286	0.50
-6.285	0.50
-6.284	0.50
-6.282	0.50
-6.280	0.50
-6.279	0.50
-6.278	0.50
-6.276	0.50
-6.274	0.50
-6.273	0.50
-6.272	0.50
-6.270	0.50
-6.268	0.50
-6.267	0.50
-6.266	0.50
-6.264	0.50
-6.262	0.50
-6.261	0.50
-6.260	0.50
-6.258	0.50
-6.256	0.50
-6.255	0.50
-6.253	0.50
-6.252	0.50
-6.251	0.50
-6.249	0.50
-6.247	0.50
-6.246	0.50
-6.245	0.50
-6.243	0.50
-6.241	0.50
-6.240	0.50
-6.239	0.50
-6.237	0.50
-6.235	0.50
-6.234	0.50
-6.233	0.50
-6.231	0.50
-6.229	0.50
-6.228	0.50
-6.227	0.50
-6.225	0.50
-6.223	0.50
-6.222	0.50
-6.220	0.50
-6.219	0.50
-6.218	0.50
-6.216	0.50
-6.214	0.50
-6.213	0.50
-6.212	0.50
-6.210	0.50
-6.208	0.50
-6.207	0.50
-6.206	0.50
-6.204	0.50
-6.202	0.50
-6.201	0.50
-6.200	0.50
-6.198	0.50
-6.196	0.50
-6.195	0.50
-6.194	0.50
-6.192	0.50
-6.190	0.50
-6.189	0.50
-6.188	0.50
-6.186	0.50
-6.185	0.49
-6.183	0.50
-6.181	0.50
-6.180	0.49
-6.179	0.50
-6.177	0.50
-6.175	0.49
-6.174	0.50
-6.173	0.49
-6.171	0.49
-6.169	0.49
-6.168	0.49
-6.167	0.49
-6.165	0.49
-6.163	0.49
-6.162	0.49
-6.161	0.49
-6.159	0.49
-6.157	0.49
-6.156	0.49
-6.155	0.49
-6.153	0.49
-6.152	0.49
-6.150	0.49
-6.148	0.49
-6.147	0.49
-6.146	0.49
-6.144	0.49
-6.142	0.49
-6.141	0.49
-6.140	0.49
-6.138	0.49
-6.136	0.49
-6.135	0.49
-6.134	0.49
-6.132	0.49
-6.130	0.49
-6.129	0.49
-6.128	0.49
-6.126	0.49
-6.124	0.49
-6.123	0.49
-6.122	0.49
-6.120	0.49
-6.119	0.49
-6.117	0.49
-6.115	0.49
-6.114	0.49
-6.113	0.49
-6.111	0.49
-6.109	0.49
-6.108	0.48
-6.107	0.48
-6.105	0.49
-6.103	0.48
-6.102	0.49
-6.101	0.48
-6.099	0.49
-6.097	0.49
-6.096	0.49
-6.095	0.48
-6.093	0.48
-6.091	0.48
-6.090	0.48
-6.089	0.48
-6.087	0.48
-6.085	0.48
-6.084	0.48
-6.082	0.48
-6.081	0.48
-6.080	0.48
-6.078	0.48
-6.076	0.48
-6.075	0.48
-6.074	0.48
-6.072	0.48
-6.070	0.48
-6.069	0.48
-6.068	0.48
-6.066	0.48
-6.064	0.48
-6.063	0.48
-6.062	0.48
-6.060	0.48
-6.058	0.48
-6.057	0.48
-6.056	0.48
-6.054	0.48
-6.052	0.48
-6.051	0.48
-6.049	0.48
-6.048	0.48
-6.047	0.48
-6.045	0.48
-6.043	0.48
-6.042	0.48
-6.041	0.48
-6.039	0.48
-6.037	0.48
-6.036	0.48
-6.035	0.48
-6.033	0.48
-6.031	0.48
-6.030	0.48
-6.029	0.48
-6.027	0.48
-6.025	0.48
-6.024	0.48
-6.023	0.48
-6.021	0.48
-6.019	0.48
-6.018	0.48
-6.016	0.48
-6.015	0.48
-6.014	0.48
-6.012	0.48
-6.010	0.48
-6.009	0.48
-6.008	0.48
-6.006	0.48
-6.004	0.48
-6.003	0.48
-6.002	0.48
-6.000	0.49
-5.998	0.49
-5.997	0.49
-5.996	0.49
-5.994	0.49
-5.992	0.49
-5.991	0.48
-5.990	0.49
-5.988	0.49
-5.986	0.49
-5.985	0.49
-5.984	0.49
-5.982	0.49
-5.981	0.49
-5.979	0.49
-5.977	0.49
-5.976	0.49
-5.975	0.49
-5.973	0.49
-5.971	0.49
-5.970	0.49
-5.969	0.49
-5.967	0.49
-5.965	0.49
-5.964	0.49
-5.963	0.49
-5.961	0.49
-5.959	0.49
-5.958	0.49
-5.957	0.49
-5.955	0.49
-5.953	0.50
-5.952	0.49
-5.951	0.50
-5.949	0.49
-5.948	0.50
-5.946	0.50
-5.944	0.50
-5.943	0.50
-5.942	0.50
-5.940	0.50
-5.938	0.50
-5.937	0.50
-5.936	0.50
-5.934	0.50
-5.932	0.50
-5.931	0.50
-5.930	0.50
-5.928	0.50
-5.926	0.50
-5.925	0.50
-5.924	0.50
-5.922	0.50
-5.920	0.50
-5.919	0.50
-5.918	0.50
-5.916	0.51
-5.915	0.51
-5.913	0.50
-5.911	0.51
-5.910	0.50
-5.909	0.50
-5.907	0.50
-5.905	0.50
-5.904	0.50
-5.903	0.51
-5.901	0.51
-5.899	0.51
-5.898	0.51
-5.897	0.51
-5.895	0.51
-5.893	0.51
-5.892	0.50
-5.891	0.51
-5.889	0.50
-5.887	0.51
-5.886	0.50
-5.885	0.51
-5.883	0.51
-5.881	0.51
-5.880	0.51
-5.878	0.51
-5.877	0.51
-5.876	0.51
-5.874	0.50
-5.872	0.51
-5.871	0.50
-5.870	0.50
-5.868	0.51
-5.866	0.50
-5.865	0.50
-5.864	0.51
-5.862	0.51
-5.860	0.51
-5.859	0.51
-5.858	0.51
-5.856	0.51
-5.854	0.50
-5.853	0.50
-5.852	0.51
-5.850	0.51
-5.848	0.51
-5.847	0.51
-5.845	0.51
-5.844	0.51
-5.843	0.51
-5.841	0.51
-5.839	0.51
-5.838	0.51
-5.837	0.51
-5.835	0.51
-5.833	0.51
-5.832	0.51
-5.831	0.50
-5.829	0.51
-5.827	0.50
-5.826	0.51
-5.825	0.51
-5.823	0.51
-5.821	0.51
-5.820	0.50
-5.819	0.51
-5.817	0.51
-5.815	0.50
-5.814	0.51
-5.813	0.50
-5.811	0.50
-5.810	0.50
-5.808	0.50
-5.806	0.50
-5.805	0.51
-5.804	0.51
-5.802	0.51
-5.800	0.51
-5.799	0.51
-5.798	0.51
-5.796	0.50
-5.794	0.51
-5.793	0.51
-5.792	0.51
-5.790	0.51
-5.788	0.51
-5.787	0.51
-5.786	0.51
-5.784	0.51
-5.782	0.51
-5.781	0.51
-5.780	0.51
-5.778	0.51
-5.777	0.51
-5.775	0.51
-5.773	0.51
-5.772	0.51
-5.771	0.51
-5.769	0.51
-5.767	0.51
-5.766	0.51
-5.765	0.51
-5.763	0.51
-5.761	0.51
-5.760	0.52
-5.759	0.51
-5.757	0.51
-5.755	0.51
-5.754	0.51
-5.753	0.51
-5.751	0.51
-5.749	0.51
-5.748	0.51
-5.747	0.52
-5.745	0.52
-5.744	0.52
-5.742	0.52
-5.740	0.52
-5.739	0.52
-5.738	0.52
-5.736	0.52
-5.734	0.52
-5.733	0.52
-5.732	0.52
-5.730	0.52
-5.728	0.52
-5.727	0.52
-5.726	0.52
-5.724	0.52
-5.722	0.52
-5.721	0.52
-5.720	0.52
-5.718	0.52
-5.716	0.52
-5.715	0.52
-5.714	0.52
-5.712	0.53
-5.710	0.53
-5.709	0.52
-5.707	0.53
-5.706	0.53
-5.705	0.53
-5.703	0.53
-5.701	0.53
-5.700	0.53
-5.699	0.53
-5.697	0.53
-5.695	0.53
-5.694	0.53
-5.693	0.53
-5.691	0.53
-5.689	0.53
-5.688	0.53
-5.687	0.53
-5.685	0.53
-5.683	0.53
-5.682	0.53
-5.681	0.53
-5.679	0.53
-5.677	0.53
-5.676	0.53
-5.674	0.53
-5.673	0.53
-5.672	0.53
-5.670	0.53
-5.668	0.53
-5.667	0.53
-5.666	0.53
-5.664	0.53
-5.662	0.53
-5.661	0.53
-5.660	0.53
-5.658	0.52
-5.656	0.52
-5.655	0.52
-5.654	0.52
-5.652	0.52
-5.650	0.52
-5.649	0.52
-5.648	0.52
-5.646	0.52
-5.644	0.52
-5.643	0.52
-5.641	0.52
-5.640	0.52
-5.639	0.52
-5.637	0.52
-5.635	0.52
-5.634	0.52
-5.633	0.52
-5.631	0.52
-5.629	0.52
-5.628	0.52
-5.627	0.52
-5.625	0.52
-5.623	0.52
-5.622	0.52
-5.621	0.52
-5.619	0.52
-5.617	0.52
-5.616	0.52
-5.615	0.51
-5.613	0.52
-5.611	0.51
-5.610	0.51
-5.609	0.51
-5.607	0.51
-5.606	0.52
-5.604	0.51
-5.602	0.52
-5.601	0.51
-5.600	0.51
-5.598	0.51
-5.596	0.51
-5.595	0.51
-5.594	0.51
-5.592	0.51
-5.590	0.51
-5.589	0.51
-5.588	0.51
-5.586	0.51
-5.584	0.51
-5.583	0.51
-5.582	0.51
-5.580	0.51
-5.578	0.51
-5.577	0.51
-5.576	0.51
-5.574	0.51
-5.573	0.51
-5.571	0.51
-5.569	0.51
-5.568	0.51
-5.567	0.51
-5.565	0.51
-5.563	0.51
-5.562	0.51
-5.561	0.51
-5.559	0.51
-5.557	0.50
-5.556	0.50
-5.555	0.50
-5.553	0.50
-5.551	0.50
-5.550	0.50
-5.549	0.50
-5.547	0.50
-5.545	0.50
-5.544	0.50
-5.543	0.50
-5.541	0.50
-5.540	0.50
-5.538	0.50
-5.536	0.50
-5.535	0.50
-5.534	0.50
-5.532	0.50
-5.530	0.50
-5.529	0.50
-5.528	0.50
-5.526	0.50
-5.524	0.50
-5.523	0.50
-5.522	0.50
-5.520	0.50
-5.518	0.49
-5.517	0.49
-5.516	0.49
-5.514	0.49
-5.512	0.49
-5.511	0.50
-5.510	0.49
-5.508	0.49
-5.506	0.49
-5.505	0.50
-5.503	0.49
-5.502	0.49
-5.501	0.49
-5.499	0.49
-5.497	0.49
-5.496	0.49
-5.495	0.49
-5.493	0.49
-5.491	0.49
-5.490	0.49
-5.489	0.49
-5.487	0.49
-5.485	0.50
-5.484	0.50
-5.483	0.50
-5.481	0.49
-5.479	0.50
-5.478	0.50
-5.477	0.50
-5.475	0.49
-5.473	0.49
-5.472	0.50
-5.470	0.50
-5.469	0.50
-5.468	0.50
-5.466	0.50
-5.464	0.50
-5.463	0.50
-5.462	0.50
-5.460	0.50
-5.458	0.50
-5.457	0.50
-5.456	0.50
-5.454	0.50
-5.452	0.50
-5.451	0.50
-5.450	0.50
-5.448	0.50
-5.446	0.50
-5.445	0.50
-5.444	0.50
-5.442	0.50
-5.440	0.50
-5.439	0.50
-5.438	0.50
-5.436	0.50
-5.435	0.50
-5.433	0.50
-5.431	0.50
-5.430	0.50
-5.429	0.50
-5.427	0.50
-5.425	0.50
-5.424	0.50
-5.423	0.50
-5.421	0.50
-5.419	0.50
-5.418	0.50
-5.417	0.50
-5.415	0.50
-5.413	0.50
-5.412	0.50
-5.411	0.51
-5.409	0.50
-5.407	0.50
-5.406	0.50
-5.405	0.50
-5.403	0.51
-5.402	0.51
-5.400	0.50
-5.398	0.50
-5.397	0.50
-5.396	0.51
-5.394	0.50
-5.392	0.51
-5.391	0.51
-5.390	0.51
-5.388	0.51
-5.386	0.51
-5.385	0.51
-5.384	0.51
-5.382	0.51
-5.380	0.51
-5.379	0.51
-5.378	0.50
-5.376	0.50
-5.374	0.51
-5.373	0.51
-5.372	0.50
-5.370	0.51
-5.369	0.51
-5.367	0.51
-5.365	0.51
-5.364	0.51
-5.363	0.51
-5.361	0.51
-5.359	0.51
-5.358	0.50
-5.357	0.50
-5.355	0.50
-5.353	0.51
-5.352	0.51
-5.351	0.51
-5.349	0.51
-5.347	0.51
-5.346	0.51
-5.345	0.51
-5.343	0.51
-5.341	0.51
-5.340	0.51
-5.339	0.51
-5.337	0.51
-5.335	0.51
-5.334	0.51
-5.332	0.51
-5.331	0.51
-5.330	0.51
-5.328	0.51
-5.326	0.51
-5.325	0.51
-5.324	0.51
-5.322	0.51
-5.320	0.51
-5.319	0.51
-5.318	0.51
-5.316	0.51
-5.314	0.51
-5.313	0.51
-5.312	0.51
-5.310	0.51
-5.308	0.51
-5.307	0.51
-5.306	0.51
-5.304	0.51
-5.302	0.51
-5.301	0.51
-5.299	0.51
-5.298	0.51
-5.297	0.51
-5.295	0.51
-5.293	0.51
-5.292	0.51
-5.291	0.51
-5.289	0.51
-5.287	0.51
-5.286	0.51
-5.285	0.51
-5.283	0.51
-5.281	0.51
-5.280	0.51
-5.279	0.51
-5.277	0.51
-5.275	0.51
-5.274	0.51
-5.273	0.51
-5.271	0.51
-5.269	0.51
-5.268	0.51
-5.266	0.51
-5.265	0.51
-5.264	0.51
-5.262	0.51
-5.260	0.51
-5.259	0.51
-5.258	0.51
-5.256	0.51
-5.254	0.51
-5.253	0.51
-5.252	0.51
-5.250	0.51
-5.248	0.51
-5.247	0.51
-5.246	0.51
-5.244	0.51
-5.242	0.51
-5.241	0.51
-5.240	0.51
-5.238	0.51
-5.236	0.51
-5.235	0.51
-5.234	0.51
-5.232	0.51
-5.231	0.51
-5.229	0.51
-5.227	0.51
-5.226	0.51
-5.225	0.51
-5.223	0.51
-5.221	0.51
-5.220	0.51
-5.219	0.51
-5.217	0.51
-5.215	0.51
-5.214	0.51
-5.213	0.51
-5.211	0.51
-5.209	0.51
-5.208	0.51
-5.207	0.51
-5.205	0.51
-5.203	0.51
-5.202	0.51
-5.201	0.51
-5.199	0.51
-5.198	0.50
-5.196	0.51
-5.194	0.51
-5.193	0.51
-5.192	0.51
-5.190	0.51
-5.188	0.51
-5.187	0.51
-5.186	0.51
-5.184	0.51
-5.182	0.51
-5.181	0.51
-5.180	0.51
-5.178	0.51
-5.176	0.51
-5.175	0.51
-5.174	0.51
-5.172	0.51
-5.170	0.51
-5.169	0.51
-5.168	0.51
-5.166	0.51
-5.165	0.51
-5.163	0.51
-5.161	0.51
-5.160	0.51
-5.159	0.51
-5.157	0.52
-5.155	0.52
-5.154	0.52
-5.153	0.52
-5.151	0.52
-5.149	0.52
-5.148	0.52
-5.147	0.52
-5.145	0.52
-5.143	0.52
-5.142	0.52
-5.141	0.52
-5.139	0.52
-5.137	0.52
-5.136	0.52
-5.135	0.52
-5.133	0.52
-5.131	0.52
-5.130	0.52
-5.128	0.52
-5.127	0.52
-5.126	0.52
-5.124	0.52
-5.122	0.53
-5.121	0.52
-5.120	0.53
-5.118	0.52
-5.116	0.53
-5.115	0.53
-5.114	0.53
-5.112	0.53
-5.110	0.53
-5.109	0.53
-5.108	0.53
-5.106	0.53
-5.104	0.53
-5.103	0.53
-5.102	0.53
-5.100	0.53
-5.098	0.54
-5.097	0.54
-5.095	0.54
-5.094	0.54
-5.093	0.54
-5.091	0.54
-5.089	0.54
-5.088	0.54
-5.087	0.54
-5.085	0.54
-5.083	0.54
-5.082	0.54
-5.081	0.54
-5.079	0.54
-5.077	0.55
-5.076	0.55
-5.075	0.55
-5.073	0.55
-5.071	0.55
-5.070	0.55
-5.069	0.55
-5.067	0.55
-5.065	0.55
-5.064	0.55
-5.063	0.55
-5.061	0.55
-5.060	0.55
-5.058	0.55
-5.056	0.55
-5.055	0.55
-5.054	0.55
-5.052	0.55
-5.050	0.56
-5.049	0.55
-5.048	0.56
-5.046	0.56
-5.044	0.56
-5.043	0.56
-5.042	0.56
-5.040	0.56
-5.038	0.56
-5.037	0.56
-5.036	0.56
-5.034	0.56
-5.032	0.56
-5.031	0.56
-5.030	0.56
-5.028	0.56
-5.027	0.56
-5.025	0.56
-5.023	0.56
-5.022	0.56
-5.021	0.56
-5.019	0.56
-5.017	0.56
-5.016	0.56
-5.015	0.56
-5.013	0.56
-5.011	0.56
-5.010	0.56
-5.009	0.56
-5.007	0.56
-5.005	0.56
-5.004	0.56
-5.003	0.56
-5.001	0.56
-4.999	0.56
-4.998	0.56
-4.997	0.56
-4.995	0.56
-4.994	0.56
-4.992	0.57
-4.990	0.56
-4.989	0.56
-4.988	0.56
-4.986	0.56
-4.984	0.56
-4.983	0.56
-4.982	0.56
-4.980	0.56
-4.978	0.56
-4.977	0.57
-4.976	0.57
-4.974	0.57
-4.972	0.57
-4.971	0.57
-4.970	0.57
-4.968	0.57
-4.966	0.57
-4.965	0.57
-4.964	0.57
-4.962	0.57
-4.960	0.57
-4.959	0.57
-4.957	0.57
-4.956	0.57
-4.955	0.57
-4.953	0.57
-4.951	0.57
-4.950	0.57
-4.949	0.57
-4.947	0.57
-4.945	0.57
-4.944	0.57
-4.943	0.57
-4.941	0.57
-4.939	0.57
-4.938	0.57
-4.937	0.58
-4.935	0.58
-4.933	0.58
-4.932	0.58
-4.931	0.58
-4.929	0.58
-4.927	0.58
-4.926	0.58
-4.924	0.58
-4.923	0.58
-4.922	0.58
-4.920	0.58
-4.918	0.58
-4.917	0.58
-4.916	0.58
-4.914	0.59
-4.912	0.59
-4.911	0.59
-4.910	0.59
-4.908	0.59
-4.906	0.59
-4.905	0.59
-4.904	0.59
-4.902	0.59
-4.900	0.59
-4.899	0.59
-4.898	0.59
-4.896	0.59
-4.894	0.60
-4.893	0.60
-4.891	0.60
-4.890	0.60
-4.889	0.60
-4.887	0.60
-4.885	0.60
-4.884	0.60
-4.883	0.60
-4.881	0.60
-4.879	0.61
-4.878	0.61
-4.877	0.61
-4.875	0.61
-4.873	0.61
-4.872	0.61
-4.871	0.61
-4.869	0.61
-4.867	0.61
-4.866	0.61
-4.865	0.61
-4.863	0.61
-4.861	0.62
-4.860	0.62
-4.859	0.62
-4.857	0.62
-4.856	0.62
-4.854	0.62
-4.852	0.63
-4.851	0.62
-4.850	0.62
-4.848	0.63
-4.846	0.62
-4.845	0.63
-4.844	0.63
-4.842	0.63
-4.840	0.63
-4.839	0.63
-4.838	0.63
-4.836	0.63
-4.834	0.63
-4.833	0.63
-4.832	0.63
-4.830	0.63
-4.828	0.63
-4.827	0.63
-4.826	0.63
-4.824	0.63
-4.823	0.63
-4.821	0.63
-4.819	0.63
-4.818	0.64
-4.817	0.64
-4.815	0.64
-4.813	0.64
-4.812	0.64
-4.811	0.64
-4.809	0.64
-4.807	0.64
-4.806	0.64
-4.805	0.64
-4.803	0.64
-4.801	0.64
-4.800	0.64
-4.799	0.64
-4.797	0.64
-4.795	0.64
-4.794	0.64
-4.793	0.64
-4.791	0.64
-4.790	0.64
-4.788	0.64
-4.786	0.64
-4.785	0.64
-4.784	0.64
-4.782	0.64
-4.780	0.65
-4.779	0.65
-4.778	0.65
-4.776	0.65
-4.774	0.65
-4.773	0.65
-4.772	0.65
-4.770	0.65
-4.768	0.65
-4.767	0.65
-4.766	0.65
-4.764	0.65
-4.762	0.65
-4.761	0.65
-4.760	0.65
-4.758	0.65
-4.756	0.65
-4.755	0.65
-4.753	0.65
-4.752	0.65
-4.751	0.65
-4.749	0.64
-4.747	0.65
-4.746	0.64
-4.745	0.65
-4.743	0.64
-4.741	0.64
-4.740	0.65
-4.739	0.64
-4.737	0.65
-4.735	0.64
-4.734	0.65
-4.733	0.64
-4.731	0.64
-4.729	0.64
-4.728	0.64
-4.727	0.64
-4.725	0.64
-4.723	0.64
-4.722	0.64
-4.720	0.64
-4.719	0.64
-4.718	0.64
-4.716	0.64
-4.714	0.64
-4.713	0.64
-4.712	0.64
-4.710	0.64
-4.708	0.64
-4.707	0.64
-4.706	0.64
-4.704	0.64
-4.702	0.64
-4.701	0.64
-4.700	0.64
-4.698	0.64
-4.696	0.64
-4.695	0.64
-4.694	0.64
-4.692	0.64
-4.690	0.64
-4.689	0.64
-4.688	0.64
-4.686	0.64
-4.685	0.64
-4.683	0.64
-4.681	0.64
-4.680	0.64
-4.679	0.64
-4.677	0.64
-4.675	0.64
-4.674	0.64
-4.673	0.64
-4.671	0.64
-4.669	0.64
-4.668	0.64
-4.667	0.64
-4.665	0.64
-4.663	0.64
-4.662	0.64
-4.661	0.65
-4.659	0.64
-4.657	0.64
-4.656	0.64
-4.655	0.64
-4.653	0.65
-4.652	0.64
-4.650	0.64
-4.648	0.64
-4.647	0.64
-4.646	0.65
-4.644	0.65
-4.642	0.65
-4.641	0.65
-4.640	0.65
-4.638	0.65
-4.636	0.65
-4.635	0.65
-4.634	0.65
-4.632	0.65
-4.630	0.65
-4.629	0.65
-4.628	0.65
-4.626	0.65
-4.624	0.65
-4.623	0.65
-4.622	0.65
-4.620	0.65
-4.619	0.65
-4.617	0.65
-4.615	0.65
-4.614	0.65
-4.613	0.65
-4.611	0.65
-4.609	0.65
-4.608	0.65
-4.607	0.65
-4.605	0.65
-4.603	0.65
-4.602	0.65
-4.601	0.65
-4.599	0.65
-4.597	0.65
-4.596	0.65
-4.595	0.65
-4.593	0.65
-4.591	0.65
-4.590	0.65
-4.589	0.65
-4.587	0.65
-4.585	0.65
-4.584	0.65
-4.582	0.65
-4.581	0.65
-4.580	0.65
-4.578	0.65
-4.576	0.65
-4.575	0.65
-4.574	0.65
-4.572	0.65
-4.570	0.65
-4.569	0.65
-4.568	0.65
-4.566	0.65
-4.564	0.65
-4.563	0.65
-4.562	0.65
-4.560	0.66
-4.558	0.65
-4.557	0.66
-4.556	0.66
-4.554	0.66
-4.552	0.65
-4.551	0.65
-4.549	0.65
-4.548	0.65
-4.547	0.66
-4.545	0.65
-4.543	0.66
-4.542	0.66
-4.541	0.66
-4.539	0.66
-4.537	0.66
-4.536	0.66
-4.535	0.66
-4.533	0.66
-4.531	0.65
-4.530	0.66
-4.529	0.65
-4.527	0.65
-4.525	0.66
-4.524	0.66
-4.523	0.66
-4.521	0.66
-4.519	0.66
-4.518	0.66
-4.516	0.66
-4.515	0.66
-4.514	0.66
-4.512	0.66
-4.510	0.66
-4.509	0.66
-4.508	0.66
-4.506	0.66
-4.504	0.66
-4.503	0.66
-4.502	0.66
-4.500	0.66
-4.498	0.66
-4.497	0.66
-4.496	0.66
-4.494	0.66
-4.492	0.66
-4.491	0.66
-4.490	0.66
-4.488	0.66
-4.486	0.66
-4.485	0.66
-4.484	0.66
-4.482	0.66
-4.481	0.66
-4.479	0.66
-4.477	0.66
-4.476	0.66
-4.475	0.66
-4.473	0.66
-4.471	0.66
-4.470	0.66
-4.469	0.66
-4.467	0.66
-4.465	0.66
-4.464	0.66
-4.463	0.66
-4.461	0.66
-4.459	0.66
-4.458	0.66
-4.457	0.66
-4.455	0.66
-4.453	0.66
-4.452	0.66
-4.451	0.66
-4.449	0.66
-4.448	0.66
-4.446	0.66
-4.444	0.66
-4.443	0.66
-4.442	0.66
-4.440	0.66
-4.438	0.66
-4.437	0.66
-4.436	0.66
-4.434	0.66
-4.432	0.66
-4.431	0.66
-4.430	0.66
-4.428	0.66
-4.426	0.66
-4.425	0.66
-4.424	0.66
-4.422	0.66
-4.420	0.66
-4.419	0.66
-4.418	0.66
-4.416	0.66
-4.415	0.66
-4.413	0.66
-4.411	0.66
-4.410	0.66
-4.409	0.65
-4.407	0.66
-4.405	0.66
-4.404	0.66
-4.403	0.66
-4.401	0.66
-4.399	0.66
-4.398	0.66
-4.397	0.66
-4.395	0.65
-4.393	0.65
-4.392	0.65
-4.391	0.65
-4.389	0.65
-4.387	0.65
-4.386	0.66
-4.385	0.65
-4.383	0.65
-4.381	0.66
-4.380	0.65
-4.378	0.66
-4.377	0.65
-4.376	0.65
-4.374	0.65
-4.372	0.65
-4.371	0.65
-4.370	0.65
-4.368	0.65
-4.366	0.65
-4.365	0.65
-4.364	0.65
-4.362	0.65
-4.360	0.65
-4.359	0.65
-4.358	0.66
-4.356	0.65
-4.354	0.65
-4.353	0.65
-4.352	0.65
-4.350	0.65
-4.348	0.66
-4.347	0.65
-4.345	0.65
-4.344	0.65
-4.343	0.66
-4.341	0.66
-4.339	0.66
-4.338	0.66
-4.337	0.66
-4.335	0.66
-4.333	0.66
-4.332	0.66
-4.331	0.66
-4.329	0.66
-4.327	0.66
-4.326	0.66
-4.325	0.66
-4.323	0.66
-4.321	0.66
-4.320	0.66
-4.319	0.66
-4.317	0.66
-4.315	0.66
-4.314	0.66
-4.313	0.66
-4.311	0.66
-4.310	0.67
-4.308	0.66
-4.306	0.66
-4.305	0.67
-4.304	0.67
-4.302	0.67
-4.300	0.67
-4.299	0.67
-4.298	0.67
-4.296	0.67
-4.294	0.67
-4.293	0.67
-4.292	0.67
-4.290	0.67
-4.288	0.67
-4.287	0.67
-4.286	0.68
-4.284	0.68
-4.282	0.68
-4.281	0.68
-4.280	0.68
-4.278	0.68
-4.277	0.68
-4.275	0.68
-4.273	0.68
-4.272	0.68
-4.271	0.68
-4.269	0.68
-4.267	0.68
-4.266	0.68
-4.265	0.68
-4.263	0.68
-4.261	0.69
-4.260	0.68
-4.259	0.68
-4.257	0.69
-4.255	0.69
-4.254	0.69
-4.253	0.69
-4.251	0.69
-4.249	0.69
-4.248	0.69
-4.247	0.69
-4.245	0.69
-4.244	0.69
-4.242	0.69
-4.240	0.69
-4.239	0.69
-4.238	0.69
-4.236	0.69
-4.234	0.69
-4.233	0.69
-4.232	0.69
-4.230	0.70
-4.228	0.69
-4.227	0.70
-4.226	0.70
-4.224	0.70
-4.222	0.70
-4.221	0.70
-4.220	0.70
-4.218	0.70
-4.216	0.70
-4.215	0.70
-4.214	0.70
-4.212	0.70
-4.210	0.70
-4.209	0.70
-4.207	0.70
-4.206	0.70
-4.205	0.70
-4.203	0.71
-4.201	0.71
-4.200	0.71
-4.199	0.71
-4.197	0.71
-4.195	0.71
-4.194	0.71
-4.193	0.71
-4.191	0.71
-4.189	0.71
-4.188	0.71
-4.187	0.71
-4.185	0.71
-4.183	0.71
-4.182	0.72
-4.181	0.71
-4.179	0.72
-4.177	0.72
-4.176	0.72
-4.174	0.72
-4.173	0.72
-4.172	0.72
-4.170	0.72
-4.168	0.72
-4.167	0.72
-4.166	0.72
-4.164	0.72
-4.162	0.72
-4.161	0.72
-4.160	0.72
-4.158	0.72
-4.156	0.72
-4.155	0.73
-4.154	0.73
-4.152	0.73
-4.150	0.73
-4.149	0.73
-4.148	0.73
-4.146	0.73
-4.144	0.73
-4.143	0.73
-4.141	0.73
-4.140	0.73
-4.139	0.73
-4.137	0.73
-4.135	0.73
-4.134	0.73
-4.133	0.73
-4.131	0.74
-4.129	0.74
-4.128	0.74
-4.127	0.74
-4.125	0.74
-4.123	0.74
-4.122	0.74
-4.121	0.74
-4.119	0.74
-4.117	0.74
-4.116	0.74
-4.115	0.74
-4.113	0.74
-4.111	0.74
-4.110	0.74
-4.109	0.74
-4.107	0.74
-4.106	0.75
-4.104	0.74
-4.102	0.75
-4.101	0.74
-4.100	0.75
-4.098	0.75
-4.096	0.75
-4.095	0.75
-4.094	0.75
-4.092	0.75
-4.090	0.75
-4.089	0.75
-4.088	0.75
-4.086	0.75
-4.084	0.75
-4.083	0.75
-4.082	0.75
-4.080	0.75
-4.078	0.75
-4.077	0.75
-4.076	0.75
-4.074	0.75
-4.073	0.75
-4.071	0.75
-4.069	0.75
-4.068	0.75
-4.067	0.76
-4.065	0.76
-4.063	0.76
-4.062	0.75
-4.061	0.75
-4.059	0.75
-4.057	0.75
-4.056	0.75
-4.055	0.76
-4.053	0.76
-4.051	0.76
-4.050	0.76
-4.049	0.76
-4.047	0.76
-4.045	0.76
-4.044	0.76
-4.043	0.76
-4.041	0.76
-4.040	0.76
-4.038	0.76
-4.036	0.76
-4.035	0.76
-4.034	0.76
-4.032	0.76
-4.030	0.76
-4.029	0.76
-4.028	0.76
-4.026	0.76
-4.024	0.76
-4.023	0.76
-4.022	0.76
-4.020	0.76
-4.018	0.76
-4.017	0.76
-4.016	0.76
-4.014	0.76
-4.012	0.76
-4.011	0.76
-4.010	0.76
-4.008	0.77
-4.006	0.76
-4.005	0.77
-4.003	0.76
-4.002	0.77
-4.001	0.76
-3.999	0.76
-3.997	0.77
-3.996	0.76
-3.994	0.77
-3.993	0.76
-3.991	0.77
-3.990	0.77
-3.989	0.77
-3.987	0.77
-3.986	0.77
-3.984	0.77
-3.983	0.77
-3.981	0.77
-3.980	0.77
-3.978	0.77
-3.977	0.77
-3.975	0.77
-3.974	0.77
-3.972	0.77
-3.970	0.77
-3.969	0.77
-3.967	0.77
-3.966	0.77
-3.964	0.77
-3.963	0.77
-3.961	0.77
-3.960	0.77
-3.958	0.77
-3.957	0.77
-3.955	0.77
-3.954	0.77
-3.953	0.77
-3.951	0.77
-3.950	0.77
-3.948	0.77
-3.947	0.77
-3.945	0.77
-3.944	0.77
-3.942	0.77
-3.941	0.77
-3.939	0.76
-3.938	0.76
-3.936	0.76
-3.934	0.77
-3.933	0.77
-3.931	0.77
-3.930	0.77
-3.928	0.77
-3.927	0.77
-3.925	0.76
-3.924	0.76
-3.922	0.76
-3.921	0.76
-3.920	0.76
-3.918	0.76
-3.917	0.76
-3.915	0.76
-3.914	0.76
-3.912	0.76
-3.911	0.76
-3.909	0.76
-3.908	0.76
-3.906	0.76
-3.905	0.76
-3.903	0.76
-3.901	0.76
-3.900	0.76
-3.898	0.76
-3.897	0.76
-3.895	0.76
-3.894	0.76
-3.892	0.76
-3.891	0.76
-3.889	0.76
-3.888	0.76
-3.886	0.76
-3.885	0.76
-3.884	0.76
-3.882	0.76
-3.881	0.76
-3.879	0.76
-3.878	0.76
-3.876	0.76
-3.875	0.76
-3.873	0.76
-3.872	0.76
-3.870	0.76
-3.868	0.76
-3.867	0.76
-3.865	0.76
-3.864	0.76
-3.862	0.76
-3.861	0.76
-3.859	0.76
-3.858	0.76
-3.856	0.76
-3.855	0.76
-3.853	0.76
-3.852	0.76
-3.851	0.76
-3.849	0.76
-3.848	0.76
-3.846	0.76
-3.845	0.76
-3.843	0.76
-3.842	0.75
-3.840	0.76
-3.839	0.75
-3.837	0.75
-3.836	0.75
-3.834	0.76
-3.832	0.75
-3.831	0.75
-3.829	0.76
-3.828	0.76
-3.826	0.76
-3.825	0.76
-3.823	0.76
-3.822	0.76
-3.820	0.76
-3.819	0.76
-3.818	0.76
-3.816	0.76
-3.815	0.76
-3.813	0.76
-3.812	0.76
-3.810	0.76
-3.809	0.76
-3.807	0.76
-3.806	0.76
-3.804	0.76
-3.803	0.76
-3.801	0.76
-3.799	0.76
-3.798	0.76
-3.796	0.76
-3.795	0.76
-3.793	0.76
-3.792	0.76
-3.790	0.76
-3.789	0.76
-3.787	0.76
-3.786	0.76
-3.784	0.76
-3.783	0.76
-3.782	0.76
-3.780	0.76
-3.779	0.76
-3.777	0.76
-3.776	0.76
-3.774	0.76
-3.773	0.76
-3.771	0.76
-3.770	0.76
-3.768	0.76
-3.766	0.76
-3.765	0.76
-3.763	0.76
-3.762	0.76
-3.760	0.76
-3.759	0.76
-3.757	0.76
-3.756	0.76
-3.754	0.76
-3.753	0.76
-3.751	0.76
-3.750	0.76
-3.749	0.77
-3.747	0.76
-3.746	0.76
-3.744	0.77
-3.743	0.76
-3.741	0.76
-3.740	0.76
-3.738	0.77
-3.737	0.76
-3.735	0.77
-3.734	0.77
-3.732	0.77
-3.730	0.77
-3.729	0.77
-3.727	0.77
-3.726	0.77
-3.724	0.77
-3.723	0.77
-3.721	0.77
-3.720	0.77
-3.718	0.77
-3.717	0.77
-3.716	0.77
-3.714	0.77
-3.713	0.77
-3.711	0.77
-3.710	0.77
-3.708	0.77
-3.707	0.77
-3.705	0.77
-3.704	0.77
-3.702	0.77
-3.701	0.77
-3.699	0.77
-3.697	0.77
-3.696	0.77
-3.694	0.77
-3.693	0.77
-3.691	0.77
-3.690	0.77
-3.688	0.77
-3.687	0.77
-3.685	0.77
-3.684	0.77
-3.682	0.77
-3.681	0.77
-3.680	0.77
-3.678	0.77
-3.677	0.77
-3.675	0.77
-3.674	0.77
-3.672	0.77
-3.671	0.77
-3.669	0.77
-3.668	0.78
-3.666	0.77
-3.664	0.77
-3.663	0.77
-3.661	0.77
-3.660	0.77
-3.658	0.77
-3.657	0.77
-3.655	0.77
-3.654	0.77
-3.652	0.78
-3.651	0.78
-3.649	0.78
-3.648	0.78
-3.647	0.77
-3.645	0.78
-3.644	0.77
-3.642	0.78
-3.641	0.77
-3.639	0.78
-3.638	0.78
-3.636	0.78
-3.635	0.78
-3.633	0.78
-3.632	0.78
-3.630	0.78
-3.628	0.78
-3.627	0.78
-3.625	0.78
-3.624	0.78
-3.622	0.78
-3.621	0.78
-3.619	0.78
-3.618	0.78
-3.616	0.78
-3.615	0.79
-3.614	0.79
-3.612	0.79
-3.611	0.79
-3.609	0.79
-3.608	0.79
-3.606	0.79
-3.605	0.79
-3.603	0.79
-3.602	0.79
-3.600	0.79
-3.599	0.79
-3.597	0.79
-3.595	0.79
-3.594	0.79
-3.592	0.79
-3.591	0.80
-3.589	0.79
-3.588	0.80
-3.586	0.80
-3.585	0.80
-3.583	0.80
-3.582	0.80
-3.580	0.80
-3.579	0.80
-3.578	0.80
-3.576	0.80
-3.575	0.80
-3.573	0.80
-3.572	0.81
-3.570	0.80
-3.569	0.81
-3.567	0.81
-3.566	0.81
-3.564	0.81
-3.563	0.81
-3.561	0.81
-3.559	0.81
-3.558	0.81
-3.556	0.81
-3.555	0.81
-3.553	0.81
-3.552	0.81
-3.550	0.82
-3.549	0.81
-3.547	0.82
-3.546	0.82
-3.545	0.82
-3.543	0.82
-3.542	0.82
-3.540	0.82
-3.539	0.82
-3.537	0.82
-3.536	0.82
-3.534	0.82
-3.533	0.83
-3.531	0.83
-3.530	0.83
-3.528	0.83
-3.526	0.83
-3.525	0.83
-3.523	0.83
-3.522	0.83
-3.520	0.83
-3.519	0.83
-3.517	0.83
-3.516	0.83
-3.514	0.83
-3.513	0.83
-3.511	0.83
-3.510	0.83
-3.509	0.83
-3.507	0.83
-3.506	0.83
-3.504	0.84
-3.503	0.84
-3.501	0.84
-3.500	0.84
-3.498	0.84
-3.497	0.84
-3.495	0.84
-3.493	0.85
-3.492	0.85
-3.490	0.85
-3.489	0.85
-3.487	0.85
-3.486	0.85
-3.484	0.85
-3.483	0.85
-3.481	0.85
-3.480	0.85
-3.478	0.86
-3.477	0.86
-3.476	0.86
-3.474	0.86
-3.473	0.86
-3.471	0.86
-3.470	0.86
-3.468	0.86
-3.467	0.86
-3.465	0.86
-3.464	0.86
-3.462	0.87
-3.461	0.87
-3.459	0.87
-3.457	0.87
-3.456	0.87
-3.454	0.87
-3.453	0.87
-3.451	0.87
-3.450	0.87
-3.448	0.87
-3.447	0.87
-3.445	0.87
-3.444	0.87
-3.443	0.87
-3.441	0.88
-3.440	0.87
-3.438	0.88
-3.437	0.88
-3.435	0.88
-3.434	0.88
-3.432	0.88
-3.431	0.88
-3.429	0.88
-3.428	0.88
-3.426	0.88
-3.424	0.88
-3.423	0.88
-3.421	0.88
-3.420	0.88
-3.418	0.88
-3.417	0.88
-3.415	0.88
-3.414	0.88
-3.412	0.88
-3.411	0.88
-3.409	0.88
-3.408	0.88
-3.407	0.88
-3.405	0.88
-3.404	0.88
-3.402	0.89
-3.401	0.89
-3.399	0.89
-3.398	0.89
-3.396	0.89
-3.395	0.89
-3.393	0.89
-3.391	0.89
-3.390	0.89
-3.388	0.89
-3.387	0.89
-3.385	0.89
-3.384	0.89
-3.382	0.89
-3.381	0.89
-3.379	0.89
-3.378	0.89
-3.376	0.89
-3.375	0.89
-3.374	0.89
-3.372	0.89
-3.371	0.89
-3.369	0.89
-3.368	0.89
-3.366	0.89
-3.365	0.89
-3.363	0.89
-3.362	0.89
-3.360	0.89
-3.359	0.89
-3.357	0.89
-3.355	0.89
-3.354	0.89
-3.352	0.89
-3.351	0.89
-3.349	0.89
-3.348	0.89
-3.346	0.89
-3.345	0.89
-3.343	0.89
-3.342	0.89
-3.341	0.89
-3.339	0.89
-3.338	0.90
-3.336	0.89
-3.335	0.90
-3.333	0.89
-3.332	0.90
-3.330	0.90
-3.329	0.89
-3.327	0.90
-3.326	0.90
-3.324	0.90
-3.322	0.90
-3.321	0.90
-3.319	0.90
-3.318	0.90
-3.316	0.90
-3.315	0.90
-3.313	0.90
-3.312	0.90
-3.310	0.90
-3.309	0.90
-3.307	0.90
-3.306	0.90
-3.305	0.90
-3.303	0.90
-3.302	0.90
-3.300	0.90
-3.299	0.90
-3.297	0.90
-3.296	0.91
-3.294	0.90
-3.293	0.90
-3.291	0.90
-3.289	0.90
-3.288	0.90
-3.286	0.90
-3.285	0.91
-3.283	0.91
-3.282	0.91
-3.280	0.91
-3.279	0.91
-3.277	0.91
-3.276	0.91
-3.274	0.91
-3.273	0.91
-3.272	0.91
-3.270	0.91
-3.269	0.91
-3.267	0.91
-3.266	0.91
-3.264	0.91
-3.263	0.92
-3.261	0.92
-3.260	0.92
-3.258	0.92
-3.257	0.92
-3.255	0.92
-3.253	0.92
-3.252	0.92
-3.250	0.92
-3.249	0.92
-3.247	0.92
-3.246	0.92
-3.244	0.92
-3.243	0.92
-3.241	0.93
-3.240	0.93
-3.239	0.93
-3.237	0.93
-3.236	0.93
-3.234	0.93
-3.233	0.93
-3.231	0.93
-3.230	0.93
-3.228	0.93
-3.227	0.93
-3.225	0.93
-3.224	0.93
-3.222	0.93
-3.220	0.93
-3.219	0.93
-3.217	0.93
-3.216	0.94
-3.214	0.93
-3.213	0.93
-3.211	0.94
-3.210	0.94
-3.208	0.94
-3.207	0.94
-3.205	0.94
-3.204	0.94
-3.203	0.94
-3.201	0.94
-3.200	0.94
-3.198	0.94
-3.197	0.94
-3.195	0.94
-3.194	0.94
-3.192	0.94
-3.191	0.94
-3.189	0.95
-3.188	0.95
-3.186	0.95
-3.184	0.95
-3.183	0.95
-3.181	0.95
-3.180	0.95
-3.178	0.95
-3.177	0.95
-3.175	0.95
-3.174	0.95
-3.172	0.95
-3.171	0.95
-3.170	0.95
-3.168	0.95
-3.167	0.96
-3.165	0.96
-3.164	0.96
-3.162	0.96
-3.161	0.96
-3.159	0.96
-3.158	0.96
-3.156	0.96
-3.155	0.96
-3.153	0.96
-3.151	0.96
-3.150	0.96
-3.148	0.96
-3.147	0.96
-3.145	0.96
-3.144	0.97
-3.142	0.97
-3.141	0.97
-3.139	0.97
-3.138	0.97
-3.136	0.97
-3.135	0.97
-3.134	0.97
-3.132	0.97
-3.131	0.97
-3.129	0.97
-3.128	0.97
-3.126	0.97
-3.125	0.97
-3.123	0.97
-3.122	0.97
-3.120	0.97
-3.118	0.97
-3.117	0.97
-3.115	0.97
-3.114	0.97
-3.112	0.97
-3.111	0.97
-3.109	0.97
-3.108	0.97
-3.106	0.97
-3.105	0.97
-3.103	0.98
-3.102	0.98
-3.101	0.98
-3.099	0.98
-3.098	0.98
-3.096	0.98
-3.095	0.98
-3.093	0.98
-3.092	0.98
-3.090	0.98
-3.089	0.98
-3.087	0.98
-3.086	0.98
-3.084	0.98
-3.082	0.98
-3.081	0.98
-3.079	0.98
-3.078	0.98
-3.076	0.98
-3.075	0.98
-3.073	0.98
-3.072	0.98
-3.070	0.98
-3.069	0.98
-3.068	0.98
-3.066	0.99
-3.065	0.99
-3.063	0.99
-3.062	0.99
-3.060	0.99
-3.059	0.99
-3.057	0.99
-3.056	0.99
-3.054	0.99
-3.053	1.00
-3.051	1.00
-3.049	1.00
-3.048	1.00
-3.046	1.00
-3.045	1.00
-3.043	1.00
-3.042	1.01
-3.040	1.01
-3.039	1.01
-3.037	1.01
-3.036	1.01
-3.034	1.01
-3.033	1.01
-3.032	1.01
-3.030	1.02
-3.029	1.02
-3.027	1.02
-3.026	1.02
-3.024	1.02
-3.023	1.02
-3.021	1.03
-3.020	1.03
-3.018	1.03
-3.016	1.03
-3.015	1.03
-3.013	1.03
-3.012	1.03
-3.010	1.03
-3.009	1.04
-3.007	1.04
-3.006	1.04
-3.004	1.04
-3.003	1.04
-3.001	1.04
-3.000	1.04
-2.999	1.04
-2.997	1.04
-2.996	1.04
-2.994	1.04
-2.993	1.05
-2.991	1.05
-2.990	1.05
-2.988	1.05
-2.987	1.05
-2.985	1.05
-2.984	1.05
-2.982	1.06
-2.980	1.06
-2.979	1.06
-2.977	1.06
-2.976	1.06
-2.974	1.06
-2.973	1.06
-2.971	1.06
-2.970	1.06
-2.968	1.06
-2.967	1.07
-2.966	1.07
-2.964	1.07
-2.963	1.07
-2.961	1.07
-2.960	1.07
-2.958	1.07
-2.957	1.07
-2.955	1.07
-2.954	1.07
-2.952	1.07
-2.951	1.07
-2.949	1.08
-2.947	1.08
-2.946	1.08
-2.944	1.08
-2.943	1.08
-2.941	1.08
-2.940	1.08
-2.938	1.08
-2.937	1.08
-2.935	1.08
-2.934	1.08
-2.932	1.08
-2.931	1.08
-2.930	1.08
-2.928	1.09
-2.927	1.09
-2.925	1.09
-2.924	1.09
-2.922	1.09
-2.921	1.09
-2.919	1.09
-2.918	1.09
-2.916	1.09
-2.914	1.09
-2.913	1.09
-2.911	1.10
-2.910	1.10
-2.908	1.10
-2.907	1.10
-2.905	1.10
-2.904	1.10
-2.902	1.10
-2.901	1.10
-2.899	1.10
-2.898	1.10
-2.897	1.10
-2.895	1.10
-2.894	1.10
-2.892	1.10
-2.891	1.10
-2.889	1.11
-2.888	1.11
-2.886	1.11
-2.885	1.11
-2.883	1.11
-2.882	1.11
-2.880	1.11
-2.878	1.11
-2.877	1.11
-2.875	1.11
-2.874	1.11
-2.872	1.11
-2.871	1.11
-2.869	1.11
-2.868	1.11
-2.866	1.11
-2.865	1.11
-2.864	1.11
-2.862	1.12
-2.861	1.11
-2.859	1.11
-2.858	1.11
-2.856	1.11
-2.855	1.12
-2.853	1.11
-2.852	1.12
-2.850	1.11
-2.849	1.12
-2.847	1.11
-2.845	1.12
-2.844	1.12
-2.842	1.12
-2.841	1.12
-2.839	1.12
-2.838	1.11
-2.836	1.11
-2.835	1.11
-2.833	1.11
-2.832	1.11
-2.830	1.12
-2.829	1.12
-2.828	1.12
-2.826	1.12
-2.825	1.12
-2.823	1.12
-2.822	1.12
-2.820	1.12
-2.819	1.12
-2.817	1.12
-2.816	1.12
-2.814	1.11
-2.813	1.11
-2.811	1.12
-2.809	1.12
-2.808	1.12
-2.806	1.12
-2.805	1.12
-2.803	1.12
-2.802	1.12
-2.800	1.12
-2.799	1.12
-2.797	1.12
-2.796	1.11
-2.795	1.12
-2.793	1.11
-2.792	1.12
-2.790	1.12
-2.789	1.12
-2.787	1.12
-2.786	1.12
-2.784	1.12
-2.783	1.12
-2.781	1.12
-2.780	1.12
-2.778	1.12
-2.776	1.12
-2.775	1.11
-2.773	1.12
-2.772	1.12
-2.770	1.12
-2.769	1.12
-2.767	1.12
-2.766	1.12
-2.764	1.12
-2.763	1.12
-2.761	1.12
-2.760	1.12
-2.759	1.12
-2.757	1.11
-2.756	1.11
-2.754	1.11
-2.753	1.12
-2.751	1.11
-2.750	1.12
-2.748	1.12
-2.747	1.12
-2.745	1.12
-2.743	1.12
-2.742	1.12
-2.740	1.11
-2.739	1.11
-2.737	1.12
-2.736	1.11
-2.734	1.11
-2.733	1.11
-2.731	1.11
-2.730	1.11
-2.728	1.12
-2.727	1.12
-2.726	1.12
-2.724	1.12
-2.723	1.12
-2.721	1.12
-2.720	1.12
-2.718	1.12
-2.717	1.12
-2.715	1.12
-2.714	1.12
-2.712	1.12
-2.711	1.12
-2.709	1.12
-2.707	1.12
-2.706	1.12
-2.704	1.12
-2.703	1.12
-2.701	1.12
-2.700	1.12
-2.698	1.12
-2.697	1.12
-2.695	1.12
-2.694	1.12
-2.693	1.12
-2.691	1.12
-2.690	1.12
-2.688	1.12
-2.687	1.12
-2.685	1.12
-2.684	1.12
-2.682	1.12
-2.681	1.12
-2.679	1.12
-2.678	1.12
-2.676	1.12
-2.674	1.12
-2.673	1.12
-2.671	1.12
-2.670	1.13
-2.668	1.13
-2.667	1.13
-2.665	1.13
-2.664	1.13
-2.662	1.13
-2.661	1.13
-2.659	1.13
-2.658	1.13
-2.657	1.13
-2.655	1.13
-2.654	1.13
-2.652	1.13
-2.651	1.13
-2.649	1.13
-2.648	1.13
-2.646	1.13
-2.645	1.13
-2.643	1.13
-2.641	1.13
-2.640	1.13
-2.638	1.14
-2.637	1.13
-2.635	1.14
-2.634	1.14
-2.632	1.14
-2.631	1.14
-2.629	1.14
-2.628	1.14
-2.626	1.14
-2.625	1.14
-2.624	1.14
-2.622	1.14
-2.621	1.14
-2.619	1.14
-2.618	1.14
-2.616	1.14
-2.615	1.14
-2.613	1.14
-2.612	1.14
-2.610	1.15
-2.609	1.15
-2.607	1.15
-2.605	1.15
-2.604	1.15
-2.602	1.15
-2.601	1.15
-2.599	1.15
-2.598	1.15
-2.596	1.15
-2.595	1.15
-2.593	1.15
-2.592	1.15
-2.591	1.16
-2.589	1.16
-2.588	1.16
-2.586	1.16
-2.585	1.16
-2.583	1.16
-2.582	1.16
-2.580	1.16
-2.579	1.16
-2.577	1.16
-2.576	1.17
-2.574	1.17
-2.572	1.17
-2.571	1.17
-2.569	1.17
-2.568	1.17
-2.566	1.17
-2.565	1.17
-2.563	1.18
-2.562	1.18
-2.560	1.18
-2.559	1.18
-2.557	1.18
-2.556	1.18
-2.555	1.18
-2.553	1.18
-2.552	1.18
-2.550	1.19
-2.549	1.19
-2.547	1.19
-2.546	1.19
-2.544	1.19
-2.543	1.20
-2.541	1.19
-2.539	1.20
-2.538	1.20
-2.536	1.20
-2.535	1.20
-2.533	1.20
-2.532	1.20
-2.530	1.21
-2.529	1.21
-2.527	1.21
-2.526	1.21
-2.524	1.21
-2.523	1.21
-2.522	1.21
-2.520	1.21
-2.519	1.21
-2.517	1.22
-2.516	1.22
-2.514	1.22
-2.513	1.22
-2.511	1.22
-2.510	1.22
-2.508	1.23
-2.507	1.23
-2.505	1.23
-2.503	1.23
-2.502	1.23
-2.500	1.23
-2.499	1.23
-2.497	1.23
-2.496	1.23
-2.494	1.24
-2.493	1.24
-2.491	1.24
-2.490	1.24
-2.489	1.24
-2.487	1.24
-2.486	1.25
-2.484	1.24
-2.483	1.24
-2.481	1.25
-2.480	1.25
-2.478	1.25
-2.477	1.25
-2.475	1.25
-2.474	1.25
-2.472	1.25
-2.470	1.25
-2.469	1.25
-2.467	1.25
-2.466	1.25
-2.464	1.26
-2.463	1.26
-2.461	1.26
-2.460	1.26
-2.458	1.26
-2.457	1.26
-2.455	1.26
-2.454	1.26
-2.453	1.26
-2.451	1.27
-2.450	1.27
-2.448	1.27
-2.447	1.27
-2.445	1.27
-2.444	1.27
-2.442	1.27
-2.441	1.27
-2.439	1.27
-2.438	1.27
-2.436	1.27
-2.434	1.28
-2.433	1.28
-2.431	1.28
-2.430	1.28
-2.428	1.28
-2.427	1.28
-2.425	1.28
-2.424	1.28
-2.422	1.28
-2.421	1.29
-2.420	1.29
-2.418	1.29
-2.417	1.29
-2.415	1.29
-2.414	1.29
-2.412	1.29
-2.411	1.29
-2.409	1.29
-2.408	1.30
-2.406	1.30
-2.405	1.30
-2.403	1.30
-2.401	1.30
-2.400	1.30
-2.398	1.30
-2.397	1.30
-2.395	1.30
-2.394	1.30
-2.392	1.30
-2.391	1.30
-2.389	1.30
-2.388	1.30
-2.386	1.30
-2.385	1.30
-2.384	1.30
-2.382	1.31
-2.381	1.30
-2.379	1.31
-2.378	1.31
-2.376	1.31
-2.375	1.31
-2.373	1.31
-2.372	1.31
-2.370	1.31
-2.368	1.31
-2.367	1.31
-2.365	1.31
-2.364	1.31
-2.362	1.31
-2.361	1.31
-2.359	1.31
-2.358	1.31
-2.356	1.31
-2.355	1.32
-2.353	1.32
-2.352	1.32
-2.351	1.32
-2.349	1.32
-2.348	1.32
-2.346	1.32
-2.345	1.32
-2.343	1.32
-2.342	1.32
-2.340	1.32
-2.339	1.32
-2.337	1.32
-2.336	1.32
-2.334	1.32
-2.332	1.33
-2.331	1.33
-2.329	1.33
-2.328	1.33
-2.326	1.33
-2.325	1.33
-2.323	1.33
-2.322	1.33
-2.320	1.33
-2.319	1.33
-2.318	1.33
-2.316	1.33
-2.315	1.33
-2.313	1.33
-2.312	1.33
-2.310	1.34
-2.309	1.34
-2.307	1.34
-2.306	1.34
-2.304	1.34
-2.303	1.34
-2.301	1.34
-2.299	1.34
-2.298	1.34
-2.296	1.34
-2.295	1.34
-2.293	1.34
-2.292	1.35
-2.290	1.35
-2.289	1.35
-2.287	1.35
-2.286	1.35
-2.284	1.35
-2.283	1.35
-2.282	1.35
-2.280	1.35
-2.279	1.35
-2.277	1.35
-2.276	1.36
-2.274	1.36
-2.273	1.36
-2.271	1.36
-2.270	1.36
-2.268	1.36
-2.266	1.36
-2.265	1.36
-2.263	1.36
-2.262	1.37
-2.260	1.37
-2.259	1.37
-2.257	1.37
-2.256	1.37
-2.254	1.37
-2.253	1.37
-2.251	1.38
-2.250	1.38
-2.249	1.38
-2.247	1.38
-2.246	1.38
-2.244	1.38
-2.243	1.38
-2.241	1.38
-2.240	1.39
-2.238	1.39
-2.237	1.39
-2.235	1.39
-2.234	1.39
-2.232	1.39
-2.230	1.39
-2.229	1.39
-2.227	1.39
-2.226	1.39
-2.224	1.39
-2.223	1.39
-2.221	1.40
-2.220	1.40
-2.218	1.40
-2.217	1.40
-2.216	1.40
-2.214	1.40
-2.213	1.40
-2.211	1.40
-2.210	1.41
-2.208	1.40
-2.207	1.41
-2.205	1.41
-2.204	1.41
-2.202	1.41
-2.201	1.41
-2.199	1.41
-2.197	1.41
-2.196	1.41
-2.194	1.41
-2.193	1.41
-2.191	1.41
-2.190	1.41
-2.188	1.41
-2.187	1.41
-2.185	1.42
-2.184	1.42
-2.182	1.42
-2.181	1.42
-2.180	1.42
-2.178	1.42
-2.177	1.42
-2.175	1.42
-2.174	1.42
-2.172	1.42
-2.171	1.42
-2.169	1.42
-2.168	1.42
-2.166	1.42
-2.164	1.43
-2.163	1.43
-2.161	1.43
-2.160	1.43
-2.158	1.43
-2.157	1.43
-2.155	1.43
-2.154	1.43
-2.152	1.43
-2.151	1.43
-2.149	1.43
-2.148	1.43
-2.147	1.43
-2.145	1.43
-2.144	1.43
-2.142	1.43
-2.141	1.43
-2.139	1.43
-2.138	1.43
-2.136	1.44
-2.135	1.44
-2.133	1.44
-2.132	1.44
-2.130	1.44
-2.128	1.44
-2.127	1.44
-2.125	1.44
-2.124	1.44
-2.122	1.44
-2.121	1.44
-2.119	1.44
-2.118	1.44
-2.116	1.44
-2.115	1.44
-2.114	1.44
-2.112	1.44
-2.111	1.45
-2.109	1.44
-2.108	1.44
-2.106	1.44
-2.105	1.44
-2.103	1.44
-2.102	1.44
-2.100	1.45
-2.099	1.45
-2.097	1.45
-2.095	1.45
-2.094	1.45
-2.092	1.45
-2.091	1.45
-2.089	1.45
-2.088	1.45
-2.086	1.45
-2.085	1.44
-2.083	1.45
-2.082	1.45
-2.080	1.45
-2.079	1.45
-2.078	1.45
-2.076	1.45
-2.075	1.45
-2.073	1.45
-2.072	1.45
-2.070	1.44
-2.069	1.44
-2.067	1.44
-2.066	1.44
-2.064	1.44
-2.063	1.44
-2.061	1.44
-2.059	1.44
-2.058	1.44
-2.056	1.44
-2.055	1.44
-2.053	1.44
-2.052	1.44
-2.050	1.44
-2.049	1.44
-2.047	1.44
-2.046	1.44
-2.045	1.44
-2.043	1.44
-2.042	1.44
-2.040	1.44
-2.039	1.44
-2.037	1.44
-2.036	1.44
-2.034	1.44
-2.033	1.44
-2.031	1.44
-2.030	1.44
-2.028	1.44
-2.026	1.44
-2.025	1.44
-2.023	1.44
-2.022	1.44
-2.020	1.44
-2.019	1.44
-2.017	1.44
-2.016	1.45
-2.014	1.44
-2.013	1.45
-2.011	1.45
-2.010	1.45
-2.009	1.45
-2.007	1.45
-2.006	1.45
-2.004	1.45
-2.003	1.45
-2.001	1.45
-2.000	1.45
-1.998	1.45
-1.997	1.45
-1.995	1.45
-1.993	1.45
-1.992	1.46
-1.990	1.46
-1.989	1.46
-1.987	1.46
-1.986	1.46
-1.985	1.46
-1.983	1.46
-1.982	1.46
-1.980	1.46
-1.979	1.46
-1.977	1.46
-1.975	1.46
-1.974	1.46
-1.972	1.46
-1.971	1.46
-1.969	1.46
-1.968	1.47
-1.967	1.47
-1.965	1.47
-1.964	1.47
-1.962	1.47
-1.961	1.47
-1.959	1.47
-1.957	1.48
-1.956	1.48
-1.954	1.48
-1.953	1.48
-1.952	1.48
-1.950	1.48
-1.949	1.48
-1.947	1.49
-1.946	1.49
-1.944	1.49
-1.942	1.49
-1.941	1.49
-1.939	1.49
-1.938	1.49
-1.936	1.49
-1.935	1.49
-1.934	1.49
-1.932	1.50
-1.931	1.50
-1.929	1.50
-1.928	1.50
-1.926	1.50
-1.924	1.50
-1.923	1.50
-1.921	1.50
-1.920	1.50
-1.918	1.50
-1.917	1.50
-1.916	1.50
-1.914	1.51
-1.913	1.51
-1.911	1.51
-1.910	1.51
-1.908	1.51
-1.906	1.51
-1.905	1.51
-1.903	1.51
-1.902	1.51
-1.901	1.51
-1.899	1.51
-1.898	1.51
-1.896	1.51
-1.895	1.52
-1.893	1.52
-1.891	1.52
-1.890	1.52
-1.888	1.52
-1.887	1.52
-1.885	1.52
-1.884	1.52
-1.883	1.52
-1.881	1.52
-1.880	1.52
-1.878	1.53
-1.877	1.53
-1.875	1.53
-1.873	1.53
-1.872	1.53
-1.870	1.53
-1.869	1.53
-1.867	1.53
-1.866	1.53
-1.865	1.53
-1.863	1.54
-1.862	1.54
-1.860	1.54
-1.859	1.54
-1.857	1.54
-1.855	1.54
-1.854	1.54
-1.852	1.55
-1.851	1.54
-1.849	1.54
-1.848	1.55
-1.847	1.55
-1.845	1.55
-1.844	1.55
-1.842	1.55
-1.840	1.55
-1.839	1.55
-1.837	1.55
-1.836	1.55
-1.834	1.55
-1.833	1.55
-1.832	1.55
-1.830	1.55
-1.829	1.56
-1.827	1.56
-1.826	1.56
-1.824	1.56
-1.822	1.56
-1.821	1.56
-1.819	1.56
-1.818	1.56
-1.816	1.56
-1.815	1.56
-1.814	1.56
-1.812	1.56
-1.811	1.56
-1.809	1.56
-1.808	1.56
-1.806	1.56
-1.804	1.56
-1.803	1.56
-1.801	1.56
-1.800	1.56
-1.798	1.56
-1.797	1.56
-1.796	1.56
-1.794	1.56
-1.793	1.56
-1.791	1.56
-1.789	1.56
-1.788	1.56
-1.786	1.56
-1.785	1.56
-1.783	1.56
-1.782	1.57
-1.781	1.57
-1.779	1.57
-1.778	1.57
-1.776	1.57
-1.775	1.57
-1.773	1.57
-1.771	1.57
-1.770	1.56
-1.768	1.57
-1.767	1.57
-1.765	1.57
-1.764	1.57
-1.763	1.57
-1.761	1.57
-1.760	1.57
-1.758	1.57
-1.757	1.57
-1.755	1.57
-1.753	1.57
-1.752	1.58
-1.750	1.58
-1.749	1.58
-1.747	1.58
-1.746	1.58
-1.745	1.58
-1.743	1.58
-1.742	1.59
-1.740	1.59
-1.738	1.59
-1.737	1.59
-1.735	1.59
-1.734	1.59
-1.732	1.59
-1.731	1.59
-1.730	1.59
-1.728	1.59
-1.727	1.59
-1.725	1.60
-1.724	1.60
-1.722	1.60
-1.720	1.60
-1.719	1.60
-1.717	1.60
-1.716	1.61
-1.714	1.61
-1.713	1.61
-1.712	1.61
-1.710	1.61
-1.709	1.61
-1.707	1.61
-1.706	1.62
-1.704	1.62
-1.702	1.62
-1.701	1.62
-1.699	1.62
-1.698	1.62
-1.696	1.62
-1.695	1.63
-1.694	1.63
-1.692	1.63
-1.691	1.63
-1.689	1.63
-1.688	1.63
-1.686	1.63
-1.684	1.64
-1.683	1.64
-1.681	1.64
-1.680	1.64
-1.679	1.64
-1.677	1.64
-1.676	1.64
-1.674	1.64
-1.673	1.64
-1.671	1.64
-1.669	1.65
-1.668	1.65
-1.666	1.65
-1.665	1.65
-1.663	1.65
-1.662	1.65
-1.661	1.66
-1.659	1.66
-1.658	1.66
-1.656	1.66
-1.655	1.66
-1.653	1.66
-1.651	1.66
-1.650	1.66
-1.648	1.66
-1.647	1.67
-1.645	1.67
-1.644	1.67
-1.643	1.67
-1.641	1.67
-1.640	1.67
-1.638	1.67
-1.637	1.67
-1.635	1.67
-1.633	1.67
-1.632	1.67
-1.630	1.67
-1.629	1.67
-1.628	1.68
-1.626	1.68
-1.625	1.68
-1.623	1.68
-1.622	1.68
-1.620	1.68
-1.618	1.68
-1.617	1.68
-1.615	1.69
-1.614	1.69
-1.612	1.69
-1.611	1.69
-1.610	1.69
-1.608	1.69
-1.607	1.70
-1.605	1.70
-1.604	1.70
-1.602	1.70
-1.600	1.70
-1.599	1.70
-1.597	1.70
-1.596	1.70
-1.594	1.70
-1.593	1.71
-1.592	1.71
-1.590	1.71
-1.589	1.71
-1.587	1.71
-1.586	1.72
-1.584	1.72
-1.582	1.72
-1.581	1.72
-1.579	1.72
-1.578	1.72
-1.577	1.73
-1.575	1.73
-1.574	1.73
-1.572	1.73
-1.571	1.73
-1.569	1.73
-1.567	1.74
-1.566	1.74
-1.564	1.74
-1.563	1.74
-1.561	1.75
-1.560	1.75
-1.559	1.75
-1.557	1.75
-1.556	1.76
-1.554	1.76
-1.553	1.76
-1.551	1.76
-1.549	1.76
-1.548	1.77
-1.546	1.77
-1.545	1.77
-1.543	1.77
-1.542	1.78
-1.541	1.78
-1.539	1.78
-1.538	1.78
-1.536	1.78
-1.535	1.79
-1.533	1.79
-1.531	1.79
-1.530	1.79
-1.528	1.80
-1.527	1.80
-1.526	1.80
-1.524	1.80
-1.523	1.81
-1.521	1.81
-1.520	1.81
-1.518	1.81
-1.516	1.81
-1.515	1.82
-1.513	1.82
-1.512	1.82
-1.510	1.83
-1.509	1.83
-1.508	1.83
-1.506	1.83
-1.505	1.84
-1.503	1.84
-1.502	1.84
-1.500	1.84
-1.498	1.84
-1.497	1.85
-1.495	1.85
-1.494	1.85
-1.492	1.85
-1.491	1.85
-1.490	1.86
-1.488	1.86
-1.487	1.86
-1.485	1.86
-1.484	1.87
-1.482	1.87
-1.480	1.87
-1.479	1.87
-1.477	1.88
-1.476	1.88
-1.474	1.88
-1.473	1.88
-1.472	1.88
-1.470	1.88
-1.469	1.88
-1.467	1.88
-1.465	1.89
-1.464	1.89
-1.462	1.89
-1.461	1.89
-1.459	1.89
-1.458	1.89
-1.457	1.90
-1.455	1.90
-1.454	1.90
-1.452	1.90
-1.451	1.90
-1.449	1.91
-1.447	1.91
-1.446	1.91
-1.444	1.91
-1.443	1.91
-1.441	1.92
-1.440	1.92
-1.439	1.92
-1.437	1.92
-1.436	1.92
-1.434	1.92
-1.433	1.92
-1.431	1.93
-1.429	1.93
-1.428	1.93
-1.426	1.93
-1.425	1.94
-1.423	1.94
-1.422	1.94
-1.421	1.94
-1.419	1.94
-1.418	1.94
-1.416	1.94
-1.414	1.95
-1.413	1.95
-1.411	1.95
-1.410	1.95
-1.408	1.95
-1.407	1.95
-1.406	1.96
-1.404	1.96
-1.403	1.96
-1.401	1.96
-1.400	1.96
-1.398	1.96
-1.396	1.96
-1.395	1.96
-1.393	1.96
-1.392	1.96
-1.390	1.96
-1.389	1.96
-1.388	1.97
-1.386	1.97
-1.385	1.97
-1.383	1.97
-1.382	1.97
-1.380	1.97
-1.378	1.97
-1.377	1.97
-1.375	1.97
-1.374	1.97
-1.372	1.97
-1.371	1.97
-1.370	1.97
-1.368	1.97
-1.367	1.97
-1.365	1.97
-1.363	1.97
-1.362	1.97
-1.360	1.97
-1.359	1.97
-1.357	1.97
-1.356	1.97
-1.355	1.97
-1.353	1.97
-1.352	1.97
-1.350	1.97
-1.349	1.97
-1.347	1.97
-1.345	1.97
-1.344	1.97
-1.342	1.97
-1.341	1.97
-1.339	1.97
-1.338	1.97
-1.337	1.97
-1.335	1.96
-1.334	1.97
-1.332	1.97
-1.331	1.97
-1.329	1.97
-1.327	1.97
-1.326	1.97
-1.324	1.97
-1.323	1.97
-1.321	1.97
-1.320	1.97
-1.319	1.97
-1.317	1.96
-1.316	1.96
-1.314	1.96
-1.313	1.97
-1.311	1.97
-1.309	1.97
-1.308	1.97
-1.306	1.97
-1.305	1.97
-1.304	1.97
-1.302	1.97
-1.301	1.97
-1.299	1.97
-1.298	1.97
-1.296	1.97
-1.294	1.97
-1.293	1.97
-1.291	1.97
-1.290	1.97
-1.288	1.97
-1.287	1.97
-1.286	1.97
-1.284	1.97
-1.283	1.97
-1.281	1.97
-1.280	1.97
-1.278	1.97
-1.276	1.97
-1.275	1.97
-1.273	1.97
-1.272	1.97
-1.270	1.97
-1.269	1.97
-1.268	1.97
-1.266	1.97
-1.265	1.97
-1.263	1.97
-1.262	1.97
-1.260	1.97
-1.258	1.97
-1.257	1.97
-1.255	1.97
-1.254	1.97
-1.253	1.97
-1.251	1.97
-1.250	1.97
-1.248	1.98
-1.247	1.98
-1.245	1.98
-1.243	1.98
-1.242	1.98
-1.240	1.98
-1.239	1.98
-1.237	1.98
-1.236	1.98
-1.235	1.99
-1.233	1.99
-1.232	1.99
-1.230	1.99
-1.229	2.00
-1.227	2.00
-1.225	2.00
-1.224	2.00
-1.222	2.00
-1.221	2.01
-1.219	2.01
-1.218	2.01
-1.217	2.01
-1.215	2.02
-1.214	2.02
-1.212	2.02
-1.211	2.02
-1.209	2.03
-1.207	2.03
-1.206	2.03
-1.204	2.04
-1.203	2.04
-1.202	2.04
-1.200	2.04
-1.199	2.05
-1.197	2.05
-1.196	2.05
-1.194	2.06
-1.192	2.06
-1.191	2.06
-1.189	2.07
-1.188	2.07
-1.186	2.07
-1.185	2.08
-1.184	2.08
-1.182	2.08
-1.181	2.08
-1.179	2.08
-1.178	2.08
-1.176	2.09
-1.174	2.09
-1.173	2.09
-1.171	2.10
-1.170	2.10
-1.168	2.10
-1.167	2.11
-1.166	2.11
-1.164	2.11
-1.163	2.11
-1.161	2.11
-1.160	2.12
-1.158	2.12
-1.156	2.12
-1.155	2.12
-1.153	2.13
-1.152	2.13
-1.151	2.13
-1.149	2.13
-1.148	2.14
-1.146	2.14
-1.145	2.14
-1.143	2.14
-1.141	2.14
-1.140	2.14
-1.138	2.15
-1.137	2.15
-1.135	2.15
-1.134	2.15
-1.133	2.15
-1.131	2.16
-1.130	2.16
-1.128	2.16
-1.127	2.16
-1.125	2.16
-1.123	2.17
-1.122	2.17
-1.120	2.17
-1.119	2.17
-1.117	2.17
-1.116	2.17
-1.115	2.18
-1.113	2.18
-1.112	2.18
-1.110	2.18
-1.109	2.19
-1.107	2.19
-1.105	2.19
-1.104	2.19
-1.102	2.19
-1.101	2.20
-1.099	2.20
-1.098	2.20
-1.097	2.20
-1.095	2.20
-1.094	2.21
-1.092	2.21
-1.090	2.21
-1.089	2.21
-1.087	2.21
-1.086	2.22
-1.084	2.22
-1.083	2.22
-1.082	2.22
-1.080	2.22
-1.079	2.22
-1.077	2.22
-1.076	2.23
-1.074	2.23
-1.072	2.23
-1.071	2.23
-1.069	2.24
-1.068	2.24
-1.066	2.24
-1.065	2.24
-1.064	2.24
-1.062	2.24
-1.061	2.24
-1.059	2.25
-1.058	2.25
-1.056	2.25
-1.054	2.25
-1.053	2.25
-1.051	2.26
-1.050	2.26
-1.048	2.26
-1.047	2.26
-1.046	2.26
-1.044	2.26
-1.043	2.27
-1.041	2.27
-1.039	2.27
-1.038	2.27
-1.036	2.27
-1.035	2.27
-1.033	2.28
-1.032	2.28
-1.031	2.28
-1.029	2.28
-1.028	2.28
-1.026	2.28
-1.025	2.28
-1.023	2.28
-1.021	2.29
-1.020	2.29
-1.018	2.29
-1.017	2.29
-1.015	2.29
-1.014	2.29
-1.013	2.29
-1.011	2.29
-1.010	2.29
-1.008	2.29
-1.007	2.29
-1.005	2.29
-1.003	2.29
-1.002	2.29
-1.000	2.30
-0.999	2.30
-0.998	2.30
-0.996	2.30
-0.994	2.30
-0.993	2.30
-0.992	2.30
-0.990	2.30
-0.988	2.30
-0.987	2.30
-0.985	2.31
-0.984	2.30
-0.983	2.30
-0.981	2.31
-0.979	2.31
-0.978	2.31
-0.976	2.31
-0.975	2.31
-0.974	2.31
-0.972	2.31
-0.970	2.31
-0.969	2.31
-0.967	2.31
-0.966	2.31
-0.965	2.31
-0.963	2.31
-0.961	2.31
-0.960	2.31
-0.959	2.31
-0.957	2.31
-0.956	2.31
-0.954	2.31
-0.952	2.31
-0.951	2.31
-0.950	2.31
-0.948	2.31
-0.947	2.31
-0.945	2.31
-0.943	2.31
-0.942	2.31
-0.941	2.31
-0.939	2.31
-0.938	2.31
-0.936	2.31
-0.934	2.32
-0.933	2.31
-0.932	2.31
-0.930	2.31
-0.928	2.32
-0.927	2.31
-0.925	2.31
-0.924	2.31
-0.923	2.31
-0.921	2.31
-0.919	2.31
-0.918	2.31
-0.916	2.31
-0.915	2.31
-0.914	2.31
-0.912	2.31
-0.910	2.31
-0.909	2.31
-0.908	2.31
-0.906	2.31
-0.905	2.31
-0.903	2.31
-0.901	2.31
-0.900	2.31
-0.899	2.31
-0.897	2.31
-0.896	2.31
-0.894	2.31
-0.892	2.31
-0.891	2.31
-0.890	2.31
-0.888	2.31
-0.887	2.31
-0.885	2.31
-0.883	2.31
-0.882	2.31
-0.881	2.31
-0.879	2.31
-0.877	2.31
-0.876	2.31
-0.874	2.31
-0.873	2.31
-0.872	2.32
-0.870	2.32
-0.868	2.31
-0.867	2.32
-0.865	2.32
-0.864	2.31
-0.863	2.31
-0.861	2.31
-0.859	2.32
-0.858	2.32
-0.857	2.32
-0.855	2.32
-0.854	2.32
-0.852	2.32
-0.850	2.32
-0.849	2.32
-0.848	2.32
-0.846	2.32
-0.845	2.32
-0.843	2.32
-0.841	2.32
-0.840	2.32
-0.839	2.32
-0.837	2.32
-0.836	2.32
-0.834	2.32
-0.832	2.32
-0.831	2.32
-0.830	2.32
-0.828	2.32
-0.826	2.32
-0.825	2.32
-0.823	2.32
-0.822	2.32
-0.821	2.32
-0.819	2.33
-0.817	2.33
-0.816	2.33
-0.814	2.33
-0.813	2.33
-0.812	2.33
-0.810	2.33
-0.808	2.33
-0.807	2.33
-0.805	2.33
-0.804	2.33
-0.803	2.33
-0.801	2.33
-0.799	2.34
-0.798	2.34
-0.797	2.34
-0.795	2.34
-0.794	2.34
-0.792	2.34
-0.790	2.34
-0.789	2.34
-0.788	2.34
-0.786	2.34
-0.785	2.34
-0.783	2.34
-0.781	2.35
-0.780	2.34
-0.779	2.35
-0.777	2.35
-0.775	2.35
-0.774	2.35
-0.772	2.35
-0.771	2.35
-0.770	2.35
-0.768	2.35
-0.766	2.35
-0.765	2.35
-0.763	2.35
-0.762	2.35
-0.761	2.35
-0.759	2.35
-0.757	2.36
-0.756	2.36
-0.754	2.36
-0.753	2.36
-0.752	2.36
-0.750	2.36
-0.748	2.36
-0.747	2.36
-0.746	2.36
-0.744	2.36
-0.743	2.36
-0.741	2.36
-0.739	2.36
-0.738	2.36
-0.737	2.36
-0.735	2.36
-0.734	2.36
-0.732	2.36
-0.730	2.36
-0.729	2.36
-0.728	2.36
-0.726	2.36
-0.725	2.36
-0.723	2.36
-0.721	2.36
-0.720	2.36
-0.719	2.36
-0.717	2.36
-0.715	2.36
-0.714	2.36
-0.712	2.36
-0.711	2.36
-0.710	2.36
-0.708	2.36
-0.706	2.36
-0.705	2.36
-0.703	2.36
-0.702	2.37
-0.701	2.37
-0.699	2.37
-0.697	2.37
-0.696	2.37
-0.695	2.37
-0.693	2.37
-0.692	2.37
-0.690	2.36
-0.688	2.36
-0.687	2.36
-0.686	2.36
-0.684	2.36
-0.683	2.36
-0.681	2.36
-0.679	2.36
-0.678	2.36
-0.677	2.36
-0.675	2.36
-0.674	2.36
-0.672	2.36
-0.670	2.36
-0.669	2.36
-0.668	2.36
-0.666	2.36
-0.664	2.36
-0.663	2.36
-0.661	2.36
-0.660	2.36
-0.659	2.36
-0.657	2.36
-0.655	2.36
-0.654	2.36
-0.652	2.36
-0.651	2.36
-0.650	2.36
-0.648	2.35
-0.646	2.36
-0.645	2.35
-0.643	2.35
-0.642	2.35
-0.641	2.35
-0.639	2.35
-0.637	2.35
-0.636	2.35
-0.635	2.35
-0.633	2.35
-0.632	2.35
-0.630	2.35
-0.628	2.35
-0.627	2.35
-0.626	2.35
-0.624	2.35
-0.623	2.34
-0.621	2.34
-0.619	2.34
-0.618	2.34
-0.617	2.34
-0.615	2.34
-0.613	2.34
-0.612	2.34
-0.610	2.34
-0.609	2.33
-0.608	2.33
-0.606	2.33
-0.604	2.33
-0.603	2.33
-0.601	2.33
-0.600	2.33
-0.599	2.32
-0.597	2.32
-0.595	2.32
-0.594	2.32
-0.592	2.32
-0.591	2.32
-0.590	2.31
-0.588	2.31
-0.586	2.31
-0.585	2.31
-0.584	2.31
-0.582	2.31
-0.581	2.31
-0.579	2.31
-0.577	2.31
-0.576	2.30
-0.575	2.30
-0.573	2.30
-0.572	2.30
-0.570	2.30
-0.568	2.30
-0.567	2.30
-0.566	2.30
-0.564	2.30
-0.563	2.29
-0.561	2.29
-0.559	2.29
-0.558	2.29
-0.557	2.29
-0.555	2.29
-0.553	2.29
-0.552	2.29
-0.550	2.29
-0.549	2.29
-0.548	2.29
-0.546	2.29
-0.544	2.29
-0.543	2.29
-0.541	2.29
-0.540	2.29
-0.539	2.29
-0.537	2.29
-0.535	2.29
-0.534	2.29
-0.533	2.29
-0.531	2.29
-0.530	2.29
-0.528	2.29
-0.526	2.29
-0.525	2.29
-0.524	2.29
-0.522	2.29
-0.521	2.29
-0.519	2.29
-0.517	2.29
-0.516	2.29
-0.515	2.29
-0.513	2.29
-0.512	2.29
-0.510	2.29
-0.508	2.29
-0.507	2.29
-0.506	2.29
-0.504	2.29
-0.502	2.29
-0.501	2.29
-0.500	2.29
-0.498	2.29
-0.496	2.29
-0.495	2.29
-0.493	2.29
-0.492	2.29
-0.491	2.29
-0.489	2.29
-0.488	2.29
-0.486	2.29
-0.484	2.29
-0.483	2.29
-0.481	2.29
-0.480	2.29
-0.479	2.29
-0.477	2.29
-0.475	2.29
-0.474	2.29
-0.472	2.29
-0.471	2.29
-0.470	2.29
-0.468	2.29
-0.467	2.29
-0.465	2.29
-0.463	2.29
-0.462	2.29
-0.461	2.29
-0.459	2.29
-0.458	2.29
-0.456	2.29
-0.454	2.29
-0.453	2.29
-0.451	2.30
-0.450	2.30
-0.449	2.30
-0.447	2.30
-0.445	2.30
-0.444	2.30
-0.442	2.30
-0.441	2.30
-0.440	2.31
-0.438	2.31
-0.437	2.31
-0.435	2.31
-0.433	2.31
-0.432	2.31
-0.431	2.31
-0.429	2.31
-0.428	2.32
-0.426	2.32
-0.424	2.32
-0.423	2.32
-0.421	2.32
-0.420	2.32
-0.419	2.32
-0.417	2.32
-0.415	2.33
-0.414	2.33
-0.412	2.33
-0.411	2.33
-0.410	2.33
-0.408	2.33
-0.407	2.33
-0.405	2.33
-0.403	2.33
-0.402	2.33
-0.400	2.33
-0.399	2.33
-0.398	2.33
-0.396	2.33
-0.394	2.34
-0.393	2.33
-0.391	2.33
-0.390	2.33
-0.389	2.34
-0.387	2.34
-0.386	2.34
-0.384	2.34
-0.382	2.34
-0.381	2.34
-0.380	2.34
-0.378	2.34
-0.377	2.34
-0.375	2.34
-0.373	2.34
-0.372	2.34
-0.370	2.34
-0.369	2.34
-0.368	2.34
-0.366	2.34
-0.364	2.34
-0.363	2.34
-0.361	2.34
-0.360	2.34
-0.359	2.34
-0.357	2.34
-0.356	2.34
-0.354	2.34
-0.352	2.34
-0.351	2.34
-0.350	2.35
-0.348	2.35
-0.347	2.34
-0.345	2.34
-0.343	2.35
-0.342	2.35
-0.340	2.35
-0.339	2.35
-0.338	2.35
-0.336	2.35
-0.335	2.35
-0.333	2.34
-0.331	2.34
-0.330	2.35
-0.329	2.34
-0.327	2.34
-0.326	2.35
-0.324	2.34
-0.322	2.35
-0.321	2.34
-0.319	2.35
-0.318	2.34
-0.317	2.35
-0.315	2.34
-0.313	2.34
-0.312	2.34
-0.310	2.34
-0.309	2.34
-0.308	2.34
-0.306	2.34
-0.305	2.34
-0.303	2.34
-0.301	2.34
-0.300	2.34
-0.299	2.34
-0.297	2.34
-0.296	2.34
-0.294	2.34
-0.292	2.34
-0.291	2.34
-0.289	2.34
-0.288	2.34
-0.287	2.34
-0.285	2.34
-0.283	2.34
-0.282	2.34
-0.280	2.33
-0.279	2.33
-0.278	2.33
-0.276	2.33
-0.275	2.33
-0.273	2.33
-0.271	2.33
-0.270	2.33
-0.269	2.32
-0.267	2.32
-0.266	2.33
-0.264	2.32
-0.262	2.32
-0.261	2.32
-0.259	2.32
-0.258	2.32
-0.257	2.32
-0.255	2.32
-0.254	2.31
-0.252	2.31
-0.250	2.31
-0.249	2.31
-0.248	2.31
-0.246	2.31
-0.244	2.31
-0.243	2.31
-0.242	2.31
-0.240	2.31
-0.238	2.31
-0.237	2.30
-0.235	2.30
-0.234	2.30
-0.233	2.30
-0.231	2.30
-0.229	2.30
-0.228	2.30
-0.227	2.30
-0.225	2.30
-0.223	2.30
-0.222	2.30
-0.221	2.30
-0.219	2.30
-0.218	2.30
-0.216	2.30
-0.214	2.30
-0.213	2.30
-0.212	2.30
-0.210	2.30
-0.208	2.30
-0.207	2.30
-0.206	2.30
-0.204	2.30
-0.203	2.30
-0.201	2.30
-0.199	2.30
-0.198	2.30
-0.197	2.30
-0.195	2.30
-0.193	2.30
-0.192	2.30
-0.191	2.30
-0.189	2.30
-0.188	2.31
-0.186	2.31
-0.184	2.31
-0.183	2.31
-0.182	2.31
-0.180	2.31
-0.178	2.31
-0.177	2.31
-0.176	2.31
-0.174	2.31
-0.172	2.31
-0.171	2.31
-0.169	2.31
-0.168	2.31
-0.167	2.31
-0.165	2.31
-0.163	2.31
-0.162	2.31
-0.161	2.31
-0.159	2.31
-0.157	2.31
-0.156	2.30
-0.154	2.31
-0.153	2.30
-0.152	2.30
-0.150	2.30
-0.148	2.30
-0.147	2.30
-0.146	2.30
-0.144	2.30
-0.142	2.30
-0.141	2.30
-0.140	2.29
-0.138	2.29
-0.137	2.29
-0.135	2.29
-0.133	2.29
-0.132	2.29
-0.131	2.29
-0.129	2.29
-0.127	2.28
-0.126	2.28
-0.124	2.28
-0.123	2.28
-0.122	2.28
-0.120	2.27
-0.119	2.27
-0.117	2.27
-0.116	2.27
-0.114	2.26
-0.112	2.26
-0.111	2.26
-0.109	2.26
-0.108	2.26
-0.106	2.25
-0.105	2.25
-0.104	2.25
-0.102	2.25
-0.101	2.24
-0.099	2.24
-0.097	2.24
-0.096	2.24
-0.094	2.23
-0.093	2.23
-0.091	2.23
-0.090	2.23
-0.089	2.23
-0.087	2.22
-0.086	2.22
-0.084	2.22
-0.083	2.22
-0.081	2.21
-0.079	2.21
-0.078	2.21
-0.076	2.21
-0.075	2.20
-0.073	2.20
-0.072	2.20
-0.071	2.20
-0.069	2.20
-0.068	2.20
-0.066	2.19
-0.064	2.19
-0.063	2.19
-0.062	2.19
-0.060	2.19
-0.058	2.18
-0.057	2.18
-0.056	2.18
-0.054	2.18
-0.052	2.17
-0.051	2.17
-0.049	2.17
-0.048	2.17
-0.047	2.17
-0.045	2.17
-0.043	2.17
-0.042	2.16
-0.041	2.16
-0.039	2.16
-0.038	2.16
-0.036	2.16
-0.034	2.16
-0.033	2.15
-0.032	2.15
-0.030	2.15
-0.029	2.15
-0.027	2.15
-0.025	2.15
-0.024	2.15
-0.023	2.14
-0.021	2.14
-0.020	2.14
-0.018	2.14
-0.016	2.14
-0.015	2.14
-0.014	2.13
-0.012	2.13
-0.010	2.13
-0.009	2.13
-0.007	2.13
-0.006	2.13
-0.004	2.13
-0.003	2.13
-0.002	2.13
0.000	2.13
0.002	2.13
0.003	2.13
0.004	2.12
0.006	2.12
0.007	2.12
0.009	2.12
0.010	2.12
0.012	2.12
0.014	2.12
0.015	2.12
0.016	2.12
0.018	2.12
0.020	2.12
0.021	2.12
0.023	2.12
0.024	2.11
0.025	2.11
0.027	2.11
0.029	2.11
0.030	2.11
0.032	2.11
0.033	2.11
0.034	2.11
0.036	2.11
0.038	2.11
0.039	2.11
0.041	2.11
0.042	2.11
0.043	2.10
0.045	2.10
0.047	2.10
0.048	2.10
0.049	2.10
0.051	2.10
0.052	2.10
0.054	2.10
0.056	2.10
0.057	2.10
0.058	2.10
0.060	2.09
0.062	2.09
0.063	2.09
0.064	2.09
0.066	2.09
0.068	2.09
0.069	2.09
0.071	2.09
0.072	2.09
0.073	2.09
0.075	2.08
0.076	2.08
0.078	2.08
0.079	2.08
0.081	2.08
0.083	2.08
0.084	2.08
0.086	2.08
0.087	2.08
0.089	2.07
0.090	2.07
0.091	2.07
0.093	2.07
0.094	2.07
0.096	2.07
0.097	2.07
0.099	2.06
0.101	2.06
0.102	2.06
0.104	2.06
0.105	2.06
0.106	2.06
0.108	2.05
0.109	2.05
0.111	2.05
0.112	2.05
0.114	2.05
0.116	2.05
0.117	2.05
0.119	2.05
0.120	2.04
0.122	2.04
0.123	2.04
0.124	2.04
0.126	2.04
0.127	2.03
0.129	2.03
0.131	2.03
0.132	2.03
0.133	2.03
0.135	2.03
0.137	2.03
0.138	2.02
0.140	2.02
0.141	2.02
0.142	2.02
0.144	2.01
0.146	2.01
0.147	2.01
0.148	2.01
0.150	2.01
0.152	2.00
0.153	2.00
0.154	2.00
0.156	2.00
0.157	1.99
0.159	1.99
0.161	1.99
0.162	1.98
0.163	1.98
0.165	1.98
0.167	1.98
0.168	1.97
0.169	1.97
0.171	1.97
0.172	1.97
0.174	1.96
0.176	1.96
0.177	1.96
0.178	1.95
0.180	1.95
0.182	1.94
0.183	1.94
0.184	1.94
0.186	1.93
0.188	1.93
0.189	1.93
0.191	1.93
0.192	1.92
0.193	1.92
0.195	1.92
0.197	1.91
0.198	1.91
0.199	1.91
0.201	1.90
0.203	1.90
0.204	1.90
0.206	1.90
0.207	1.89
0.208	1.89
0.210	1.89
0.212	1.89
0.213	1.88
0.214	1.88
0.216	1.88
0.218	1.88
0.219	1.88
0.221	1.88
0.222	1.87
0.223	1.87
0.225	1.87
0.227	1.87
0.228	1.87
0.229	1.86
0.231	1.86
0.233	1.86
0.234	1.86
0.235	1.86
0.237	1.86
0.238	1.85
0.240	1.85
0.242	1.85
0.243	1.85
0.244	1.85
0.246	1.85
0.248	1.85
0.249	1.85
0.250	1.85
0.252	1.85
0.254	1.84
0.255	1.84
0.257	1.84
0.258	1.84
0.259	1.84
0.261	1.84
0.262	1.84
0.264	1.84
0.266	1.84
0.267	1.84
0.269	1.84
0.270	1.84
0.271	1.84
0.273	1.84
0.275	1.84
0.276	1.84
0.278	1.84
0.279	1.84
0.280	1.84
0.282	1.84
0.283	1.84
0.285	1.84
0.287	1.84
0.288	1.84
0.289	1.84
0.291	1.84
0.292	1.84
0.294	1.84
0.296	1.83
0.297	1.83
0.299	1.83
0.300	1.83
0.301	1.83
0.303	1.83
0.305	1.83
0.306	1.83
0.308	1.83
0.309	1.83
0.310	1.83
0.312	1.83
0.313	1.83
0.315	1.83
0.317	1.83
0.318	1.83
0.319	1.83
0.321	1.83
0.322	1.83
0.324	1.83
0.326	1.83
0.327	1.83
0.329	1.83
0.330	1.82
0.331	1.82
0.333	1.82
0.335	1.82
0.336	1.82
0.338	1.82
0.339	1.81
0.340	1.81
0.342	1.81
0.343	1.81
0.345	1.81
0.347	1.81
0.348	1.81
0.350	1.81
0.351	1.81
0.352	1.81
0.354	1.81
0.356	1.81
0.357	1.81
0.359	1.81
0.360	1.81
0.361	1.81
0.363	1.81
0.364	1.80
0.366	1.80
0.368	1.80
0.369	1.80
0.370	1.80
0.372	1.80
0.373	1.80
0.375	1.79
0.377	1.79
0.378	1.79
0.380	1.79
0.381	1.79
0.382	1.78
0.384	1.78
0.386	1.78
0.387	1.78
0.389	1.78
0.390	1.78
0.391	1.78
0.393	1.78
0.394	1.78
0.396	1.78
0.398	1.77
0.399	1.77
0.400	1.77
0.402	1.77
0.403	1.77
0.405	1.77
0.407	1.77
0.408	1.77
0.410	1.77
0.411	1.77
0.412	1.77
0.414	1.76
0.415	1.76
0.417	1.76
0.419	1.76
0.420	1.76
0.421	1.76
0.423	1.76
0.424	1.76
0.426	1.75
0.428	1.75
0.429	1.75
0.431	1.75
0.432	1.75
0.433	1.75
0.435	1.75
0.437	1.75
0.438	1.75
0.440	1.75
0.441	1.75
0.442	1.75
0.444	1.75
0.445	1.75
0.447	1.75
0.449	1.75
0.450	1.74
0.451	1.74
0.453	1.74
0.454	1.74
0.456	1.74
0.458	1.74
0.459	1.74
0.461	1.73
0.462	1.73
0.463	1.73
0.465	1.73
0.467	1.73
0.468	1.73
0.470	1.73
0.471	1.73
0.472	1.73
0.474	1.73
0.475	1.73
0.477	1.73
0.479	1.73
0.480	1.73
0.481	1.73
0.483	1.73
0.484	1.72
0.486	1.72
0.488	1.72
0.489	1.72
0.491	1.72
0.492	1.72
0.493	1.72
0.495	1.71
0.496	1.71
0.498	1.71
0.500	1.71
0.501	1.71
0.502	1.71
0.504	1.71
0.506	1.71
0.507	1.70
0.508	1.70
0.510	1.70
0.512	1.70
0.513	1.70
0.515	1.70
0.516	1.70
0.517	1.69
0.519	1.69
0.521	1.69
0.522	1.69
0.524	1.69
0.525	1.69
0.526	1.69
0.528	1.69
0.530	1.69
0.531	1.68
0.533	1.68
0.534	1.68
0.535	1.68
0.537	1.68
0.539	1.68
0.540	1.67
0.541	1.67
0.543	1.67
0.544	1.67
0.546	1.67
0.548	1.67
0.549	1.67
0.550	1.67
0.552	1.67
0.553	1.67
0.555	1.67
0.557	1.67
0.558	1.67
0.559	1.67
0.561	1.67
0.563	1.67
0.564	1.66
0.566	1.67
0.567	1.66
0.568	1.66
0.570	1.66
0.572	1.66
0.573	1.66
0.575	1.66
0.576	1.66
0.577	1.66
0.579	1.66
0.581	1.66
0.582	1.66
0.584	1.66
0.585	1.66
0.586	1.66
0.588	1.66
0.590	1.66
0.591	1.66
0.592	1.66
0.594	1.66
0.595	1.66
0.597	1.66
0.599	1.66
0.600	1.66
0.601	1.66
0.603	1.66
0.604	1.66
0.606	1.66
0.608	1.66
0.609	1.66
0.610	1.66
0.612	1.66
0.613	1.66
0.615	1.66
0.617	1.66
0.618	1.66
0.619	1.66
0.621	1.66
0.623	1.66
0.624	1.67
0.626	1.67
0.627	1.67
0.628	1.67
0.630	1.67
0.632	1.67
0.633	1.66
0.635	1.66
0.636	1.66
0.637	1.66
0.639	1.66
0.641	1.66
0.642	1.67
0.643	1.66
0.645	1.67
0.646	1.67
0.648	1.66
0.650	1.67
0.651	1.66
0.652	1.66
0.654	1.66
0.655	1.66
0.657	1.66
0.659	1.66
0.660	1.66
0.661	1.66
0.663	1.66
0.664	1.66
0.666	1.66
0.668	1.66
0.669	1.66
0.670	1.66
0.672	1.66
0.674	1.66
0.675	1.66
0.677	1.66
0.678	1.66
0.679	1.66
0.681	1.66
0.683	1.66
0.684	1.66
0.686	1.66
0.687	1.66
0.688	1.66
0.690	1.66
0.692	1.66
0.693	1.66
0.695	1.66
0.696	1.66
0.697	1.66
0.699	1.66
0.701	1.66
0.702	1.66
0.703	1.66
0.705	1.65
0.706	1.65
0.708	1.65
0.710	1.65
0.711	1.65
0.712	1.65
0.714	1.65
0.715	1.64
0.717	1.64
0.719	1.64
0.720	1.64
0.721	1.64
0.723	1.64
0.725	1.64
0.726	1.64
0.728	1.63
0.729	1.63
0.730	1.63
0.732	1.63
0.734	1.62
0.735	1.62
0.737	1.62
0.738	1.62
0.739	1.62
0.741	1.62
0.743	1.62
0.744	1.61
0.746	1.61
0.747	1.61
0.748	1.61
0.750	1.60
0.752	1.60
0.753	1.60
0.754	1.60
0.756	1.59
0.757	1.60
0.759	1.59
0.761	1.59
0.762	1.59
0.763	1.59
0.765	1.59
0.766	1.58
0.768	1.58
0.770	1.58
0.771	1.58
0.772	1.58
0.774	1.57
0.775	1.57
0.777	1.57
0.779	1.57
0.780	1.57
0.781	1.57
0.783	1.57
0.785	1.57
0.786	1.56
0.788	1.56
0.789	1.56
0.790	1.56
0.792	1.56
0.794	1.56
0.795	1.55
0.797	1.55
0.798	1.55
0.799	1.55
0.801	1.55
0.803	1.55
0.804	1.55
0.805	1.55
0.807	1.55
0.808	1.55
0.810	1.55
0.812	1.55
0.813	1.54
0.814	1.55
0.816	1.55
0.817	1.54
0.819	1.54
0.821	1.54
0.822	1.54
0.823	1.54
0.825	1.54
0.826	1.54
0.828	1.54
0.830	1.54
0.831	1.54
0.832	1.54
0.834	1.54
0.836	1.54
0.837	1.53
0.839	1.54
0.840	1.54
0.841	1.54
0.843	1.54
0.845	1.54
0.846	1.54
0.848	1.53
0.849	1.53
0.850	1.53
0.852	1.53
0.854	1.53
0.855	1.53
0.857	1.53
0.858	1.53
0.859	1.53
0.861	1.53
0.863	1.53
0.864	1.53
0.865	1.53
0.867	1.53
0.868	1.53
0.870	1.52
0.872	1.52
0.873	1.52
0.874	1.52
0.876	1.52
0.877	1.52
0.879	1.52
0.881	1.52
0.882	1.52
0.883	1.52
0.885	1.52
0.887	1.52
0.888	1.51
0.890	1.51
0.891	1.51
0.892	1.51
0.894	1.51
0.896	1.51
0.897	1.51
0.899	1.51
0.900	1.50
0.901	1.50
0.903	1.50
0.905	1.50
0.906	1.50
0.908	1.50
0.909	1.49
0.910	1.49
0.912	1.49
0.914	1.49
0.915	1.49
0.916	1.49
0.918	1.49
0.919	1.49
0.921	1.48
0.923	1.48
0.924	1.48
0.925	1.48
0.927	1.47
0.928	1.47
0.930	1.47
0.932	1.47
0.933	1.47
0.934	1.46
0.936	1.46
0.938	1.46
0.939	1.46
0.941	1.46
0.942	1.46
0.943	1.46
0.945	1.46
0.947	1.46
0.948	1.45
0.950	1.45
0.951	1.45
0.952	1.44
0.954	1.44
0.956	1.44
0.957	1.44
0.959	1.44
0.960	1.44
0.961	1.43
0.963	1.43
0.965	1.43
0.966	1.43
0.967	1.42
0.969	1.42
0.970	1.42
0.972	1.42
0.974	1.42
0.975	1.41
0.976	1.42
0.978	1.41
0.979	1.41
0.981	1.41
0.983	1.41
0.984	1.40
0.985	1.40
0.987	1.40
0.988	1.40
0.990	1.40
0.992	1.40
0.993	1.39
0.994	1.39
0.996	1.39
0.998	1.39
0.999	1.39
1.000	1.39
1.002	1.38
1.003	1.38
1.005	1.38
1.007	1.38
1.008	1.38
1.010	1.38
1.011	1.37
1.013	1.37
1.014	1.37
1.015	1.37
1.017	1.37
1.018	1.37
1.020	1.37
1.021	1.36
1.023	1.36
1.025	1.36
1.026	1.36
1.028	1.36
1.029	1.36
1.031	1.36
1.032	1.35
1.033	1.35
1.035	1.35
1.036	1.35
1.038	1.35
1.039	1.35
1.041	1.35
1.043	1.35
1.044	1.35
1.046	1.35
1.047	1.34
1.048	1.34
1.050	1.34
1.051	1.34
1.053	1.34
1.054	1.34
1.056	1.34
1.058	1.34
1.059	1.34
1.061	1.34
1.062	1.34
1.064	1.34
1.065	1.33
1.066	1.34
1.068	1.33
1.069	1.33
1.071	1.33
1.072	1.33
1.074	1.33
1.076	1.33
1.077	1.33
1.079	1.33
1.080	1.33
1.082	1.33
1.083	1.33
1.084	1.33
1.086	1.33
1.087	1.33
1.089	1.32
1.090	1.32
1.092	1.32
1.094	1.32
1.095	1.32
1.097	1.32
1.098	1.32
1.099	1.32
1.101	1.32
1.102	1.31
1.104	1.31
1.105	1.31
1.107	1.31
1.109	1.31
1.110	1.31
1.112	1.31
1.113	1.31
1.115	1.31
1.116	1.31
1.117	1.31
1.119	1.31
1.120	1.31
1.122	1.31
1.123	1.31
1.125	1.31
1.127	1.30
1.128	1.30
1.130	1.30
1.131	1.31
1.133	1.30
1.134	1.30
1.135	1.30
1.137	1.30
1.138	1.30
1.140	1.30
1.141	1.30
1.143	1.30
1.145	1.30
1.146	1.30
1.148	1.30
1.149	1.30
1.151	1.30
1.152	1.30
1.153	1.30
1.155	1.30
1.156	1.30
1.158	1.30
1.160	1.30
1.161	1.30
1.163	1.30
1.164	1.30
1.166	1.30
1.167	1.30
1.168	1.30
1.170	1.30
1.171	1.30
1.173	1.30
1.174	1.30
1.176	1.30
1.178	1.30
1.179	1.30
1.181	1.30
1.182	1.30
1.184	1.30
1.185	1.30
1.186	1.31
1.188	1.30
1.189	1.31
1.191	1.30
1.192	1.31
1.194	1.31
1.196	1.31
1.197	1.31
1.199	1.31
1.200	1.31
1.202	1.31
1.203	1.31
1.204	1.31
1.206	1.30
1.207	1.30
1.209	1.31
1.211	1.30
1.212	1.30
1.214	1.31
1.215	1.31
1.217	1.31
1.218	1.31
1.219	1.31
1.221	1.31
1.222	1.31
1.224	1.31
1.225	1.31
1.227	1.30
1.229	1.31
1.230	1.31
1.232	1.31
1.233	1.31
1.235	1.31
1.236	1.31
1.237	1.31
1.239	1.31
1.240	1.31
1.242	1.31
1.243	1.31
1.245	1.31
1.247	1.31
1.248	1.31
1.250	1.31
1.251	1.31
1.253	1.31
1.254	1.31
1.255	1.31
1.257	1.31
1.258	1.31
1.260	1.31
1.262	1.31
1.263	1.31
1.265	1.31
1.266	1.30
1.268	1.31
1.269	1.31
1.270	1.31
1.272	1.31
1.273	1.31
1.275	1.31
1.276	1.31
1.278	1.31
1.280	1.31
1.281	1.31
1.283	1.31
1.284	1.31
1.286	1.31
1.287	1.31
1.288	1.31
1.290	1.31
1.291	1.31
1.293	1.31
1.294	1.31
1.296	1.31
1.298	1.31
1.299	1.31
1.301	1.31
1.302	1.31
1.304	1.31
1.305	1.30
1.306	1.31
1.308	1.31
1.309	1.31
1.311	1.31
1.313	1.31
1.314	1.31
1.316	1.31
1.317	1.31
1.319	1.31
1.320	1.31
1.321	1.31
1.323	1.31
1.324	1.31
1.326	1.31
1.327	1.31
1.329	1.31
1.331	1.31
1.332	1.31
1.334	1.31
1.335	1.31
1.337	1.31
1.338	1.31
1.339	1.31
1.341	1.31
1.342	1.31
1.344	1.31
1.345	1.31
1.347	1.31
1.349	1.31
1.350	1.31
1.352	1.31
1.353	1.31
1.355	1.31
1.356	1.31
1.357	1.31
1.359	1.31
1.360	1.31
1.362	1.31
1.363	1.31
1.365	1.31
1.367	1.31
1.368	1.31
1.370	1.31
1.371	1.31
1.372	1.31
1.374	1.31
1.375	1.31
1.377	1.31
1.378	1.31
1.380	1.31
1.382	1.31
1.383	1.31
1.385	1.31
1.386	1.32
1.388	1.31
1.389	1.32
1.390	1.32
1.392	1.32
1.393	1.32
1.395	1.32
1.396	1.32
1.398	1.33
1.400	1.33
1.401	1.33
1.403	1.33
1.404	1.33
1.406	1.33
1.407	1.33
1.408	1.33
1.410	1.33
1.411	1.33
1.413	1.33
1.414	1.33
1.416	1.33
1.418	1.33
1.419	1.33
1.421	1.33
1.422	1.33
1.423	1.33
1.425	1.33
1.426	1.33
1.428	1.33
1.429	1.33
1.431	1.33
1.433	1.34
1.434	1.34
1.436	1.34
1.437	1.34
1.439	1.34
1.440	1.34
1.441	1.34
1.443	1.34
1.444	1.34
1.446	1.34
1.447	1.35
1.449	1.35
1.451	1.35
1.452	1.35
1.454	1.35
1.455	1.35
1.457	1.35
1.458	1.35
1.459	1.35
1.461	1.35
1.462	1.35
1.464	1.35
1.465	1.36
1.467	1.36
1.469	1.36
1.470	1.36
1.472	1.36
1.473	1.36
1.474	1.36
1.476	1.36
1.477	1.36
1.479	1.37
1.480	1.37
1.482	1.37
1.484	1.37
1.485	1.37
1.487	1.37
1.488	1.37
1.490	1.37
1.491	1.38
1.492	1.38
1.494	1.38
1.495	1.38
1.497	1.38
1.498	1.38
1.500	1.38
1.502	1.39
1.503	1.39
1.505	1.39
1.506	1.39
1.508	1.39
1.509	1.40
1.510	1.40
1.512	1.40
1.513	1.40
1.515	1.40
1.516	1.41
1.518	1.41
1.520	1.41
1.521	1.41
1.523	1.41
1.524	1.41
1.526	1.41
1.527	1.42
1.528	1.42
1.530	1.42
1.531	1.42
1.533	1.42
1.535	1.43
1.536	1.43
1.538	1.43
1.539	1.43
1.541	1.43
1.542	1.43
1.543	1.43
1.545	1.44
1.546	1.44
1.548	1.44
1.549	1.44
1.551	1.45
1.553	1.45
1.554	1.45
1.556	1.45
1.557	1.45
1.559	1.45
1.560	1.45
1.561	1.45
1.563	1.46
1.564	1.46
1.566	1.46
1.567	1.46
1.569	1.46
1.571	1.46
1.572	1.46
1.574	1.46
1.575	1.46
1.577	1.46
1.578	1.46
1.579	1.46
1.581	1.46
1.582	1.47
1.584	1.47
1.586	1.47
1.587	1.47
1.589	1.47
1.590	1.47
1.592	1.47
1.593	1.47
1.594	1.47
1.596	1.47
1.597	1.47
1.599	1.47
1.600	1.48
1.602	1.48
1.604	1.48
1.605	1.48
1.607	1.48
1.608	1.48
1.610	1.48
1.611	1.48
1.612	1.48
1.614	1.48
1.615	1.48
1.617	1.48
1.618	1.48
1.620	1.48
1.622	1.48
1.623	1.48
1.625	1.48
1.626	1.48
1.628	1.48
1.629	1.49
1.630	1.49
1.632	1.49
1.633	1.49
1.635	1.49
1.637	1.49
1.638	1.49
1.640	1.49
1.641	1.49
1.643	1.49
1.644	1.49
1.645	1.49
1.647	1.49
1.648	1.49
1.650	1.49
1.651	1.49
1.653	1.49
1.655	1.49
1.656	1.49
1.658	1.49
1.659	1.49
1.661	1.49
1.662	1.49
1.663	1.49
1.665	1.49
1.666	1.49
1.668	1.49
1.669	1.50
1.671	1.50
1.673	1.50
1.674	1.50
1.676	1.50
1.677	1.50
1.679	1.50
1.680	1.50
1.681	1.50
1.683	1.50
1.684	1.50
1.686	1.50
1.688	1.50
1.689	1.50
1.691	1.51
1.692	1.50
1.694	1.51
1.695	1.51
1.696	1.51
1.698	1.51
1.699	1.51
1.701	1.51
1.702	1.51
1.704	1.51
1.706	1.51
1.707	1.51
1.709	1.51
1.710	1.51
1.712	1.51
1.713	1.51
1.714	1.52
1.716	1.51
1.717	1.52
1.719	1.52
1.720	1.52
1.722	1.52
1.724	1.52
1.725	1.52
1.727	1.52
1.728	1.52
1.730	1.52
1.731	1.52
1.732	1.53
1.734	1.53
1.735	1.53
1.737	1.53
1.738	1.53
1.740	1.53
1.742	1.53
1.743	1.53
1.745	1.53
1.746	1.53
1.747	1.53
1.749	1.53
1.750	1.53
1.752	1.54
1.753	1.53
1.755	1.54
1.757	1.53
1.758	1.54
1.760	1.54
1.761	1.54
1.763	1.54
1.764	1.54
1.765	1.54
1.767	1.54
1.768	1.54
1.770	1.54
1.771	1.54
1.773	1.54
1.775	1.54
1.776	1.54
1.778	1.54
1.779	1.54
1.781	1.54
1.782	1.54
1.783	1.54
1.785	1.54
1.786	1.54
1.788	1.54
1.789	1.54
1.791	1.54
1.793	1.54
1.794	1.54
1.796	1.54
1.797	1.54
1.798	1.53
1.800	1.53
1.801	1.53
1.803	1.54
1.804	1.53
1.806	1.53
1.808	1.53
1.809	1.53
1.811	1.53
1.812	1.53
1.814	1.53
1.815	1.53
1.816	1.53
1.818	1.53
1.819	1.53
1.821	1.53
1.822	1.53
1.824	1.53
1.826	1.53
1.827	1.53
1.829	1.53
1.830	1.53
1.832	1.53
1.833	1.53
1.834	1.53
1.836	1.54
1.837	1.53
1.839	1.53
1.840	1.54
1.842	1.54
1.844	1.54
1.845	1.54
1.847	1.54
1.848	1.54
1.849	1.54
1.851	1.54
1.852	1.54
1.854	1.55
1.855	1.55
1.857	1.55
1.859	1.55
1.860	1.55
1.862	1.55
1.863	1.55
1.865	1.55
1.866	1.55
1.867	1.55
1.869	1.56
1.870	1.56
1.872	1.56
1.873	1.56
1.875	1.56
1.877	1.56
1.878	1.56
1.880	1.56
1.881	1.56
1.883	1.56
1.884	1.56
1.885	1.56
1.887	1.56
1.888	1.56
1.890	1.56
1.891	1.56
1.893	1.56
1.895	1.56
1.896	1.56
1.898	1.56
1.899	1.56
1.901	1.56
1.902	1.56
1.903	1.56
1.905	1.56
1.906	1.56
1.908	1.57
1.910	1.57
1.911	1.56
1.913	1.56
1.914	1.56
1.916	1.56
1.917	1.56
1.918	1.56
1.920	1.56
1.921	1.57
1.923	1.57
1.924	1.57
1.926	1.57
1.928	1.57
1.929	1.57
1.931	1.57
1.932	1.57
1.934	1.57
1.935	1.57
1.936	1.57
1.938	1.57
1.939	1.57
1.941	1.57
1.942	1.57
1.944	1.57
1.946	1.57
1.947	1.57
1.949	1.57
1.950	1.57
1.952	1.57
1.953	1.57
1.954	1.57
1.956	1.57
1.957	1.57
1.959	1.58
1.961	1.58
1.962	1.58
1.964	1.58
1.965	1.58
1.967	1.58
1.968	1.58
1.969	1.58
1.971	1.58
1.972	1.58
1.974	1.58
1.975	1.58
1.977	1.58
1.979	1.58
1.980	1.59
1.982	1.59
1.983	1.59
1.985	1.59
1.986	1.59
1.987	1.59
1.989	1.59
1.990	1.59
1.992	1.59
1.993	1.59
1.995	1.59
1.997	1.59
1.998	1.59
2.000	1.60
2.001	1.60
2.003	1.60
2.004	1.60
2.006	1.60
2.007	1.61
2.009	1.61
2.010	1.61
2.011	1.61
2.013	1.61
2.014	1.61
2.016	1.61
2.017	1.61
2.019	1.62
2.020	1.62
2.022	1.62
2.023	1.62
2.025	1.62
2.026	1.62
2.028	1.62
2.030	1.62
2.031	1.62
2.033	1.63
2.034	1.63
2.036	1.63
2.037	1.63
2.039	1.63
2.040	1.63
2.042	1.63
2.043	1.63
2.045	1.63
2.046	1.63
2.047	1.63
2.049	1.63
2.050	1.63
2.052	1.63
2.053	1.63
2.055	1.64
2.056	1.64
2.058	1.64
2.059	1.64
2.061	1.64
2.063	1.65
2.064	1.65
2.066	1.65
2.067	1.65
2.069	1.65
2.070	1.65
2.072	1.65
2.073	1.65
2.075	1.65
2.076	1.65
2.078	1.65
2.079	1.65
2.080	1.65
2.082	1.65
2.083	1.66
2.085	1.66
2.086	1.66
2.088	1.66
2.089	1.66
2.091	1.66
2.092	1.66
2.094	1.66
2.095	1.66
2.097	1.66
2.099	1.66
2.100	1.66
2.102	1.66
2.103	1.66
2.105	1.66
2.106	1.66
2.108	1.67
2.109	1.67
2.111	1.67
2.112	1.67
2.114	1.67
2.115	1.67
2.116	1.67
2.118	1.67
2.119	1.67
2.121	1.67
2.122	1.67
2.124	1.67
2.125	1.67
2.127	1.68
2.128	1.68
2.130	1.68
2.132	1.68
2.133	1.68
2.135	1.68
2.136	1.68
2.138	1.68
2.139	1.68
2.141	1.68
2.142	1.68
2.144	1.69
2.145	1.69
2.147	1.69
2.148	1.69
2.149	1.69
2.151	1.69
2.152	1.69
2.154	1.69
2.155	1.69
2.157	1.69
2.158	1.70
2.160	1.70
2.161	1.70
2.163	1.70
2.164	1.70
2.166	1.70
2.168	1.70
2.169	1.70
2.171	1.70
2.172	1.70
2.174	1.71
2.175	1.71
2.177	1.71
2.178	1.71
2.180	1.71
2.181	1.72
2.182	1.72
2.184	1.72
2.185	1.72
2.187	1.72
2.188	1.72
2.190	1.72
2.191	1.72
2.193	1.72
2.194	1.72
2.196	1.72
2.197	1.73
2.199	1.72
2.201	1.73
2.202	1.73
2.204	1.73
2.205	1.73
2.207	1.73
2.208	1.73
2.210	1.73
2.211	1.73
2.213	1.73
2.214	1.73
2.216	1.73
2.217	1.73
2.218	1.73
2.220	1.74
2.221	1.74
2.223	1.74
2.224	1.74
2.226	1.74
2.227	1.74
2.229	1.74
2.230	1.74
2.232	1.74
2.234	1.74
2.235	1.74
2.237	1.74
2.238	1.74
2.240	1.74
2.241	1.74
2.243	1.75
2.244	1.75
2.246	1.74
2.247	1.75
2.249	1.75
2.250	1.74
2.251	1.75
2.253	1.75
2.254	1.75
2.256	1.75
2.257	1.75
2.259	1.75
2.260	1.75
2.262	1.75
2.263	1.75
2.265	1.75
2.266	1.75
2.268	1.75
2.270	1.75
2.271	1.75
2.273	1.75
2.274	1.75
2.276	1.75
2.277	1.75
2.279	1.75
2.280	1.75
2.282	1.75
2.283	1.76
2.284	1.76
2.286	1.76
2.287	1.76
2.289	1.76
2.290	1.76
2.292	1.76
2.293	1.76
2.295	1.76
2.296	1.76
2.298	1.76
2.299	1.76
2.301	1.76
2.303	1.76
2.304	1.76
2.306	1.76
2.307	1.76
2.309	1.76
2.310	1.76
2.312	1.76
2.313	1.76
2.315	1.76
2.316	1.76
2.318	1.77
2.319	1.77
2.320	1.77
2.322	1.77
2.323	1.77
2.325	1.77
2.326	1.77
2.328	1.77
2.329	1.77
2.331	1.77
2.332	1.77
2.334	1.77
2.336	1.77
2.337	1.77
2.339	1.77
2.340	1.77
2.342	1.77
2.343	1.77
2.345	1.77
2.346	1.77
2.348	1.77
2.349	1.77
2.351	1.77
2.352	1.77
2.353	1.77
2.355	1.77
2.356	1.77
2.358	1.77
2.359	1.77
2.361	1.77
2.362	1.77
2.364	1.77
2.365	1.77
2.367	1.77
2.368	1.77
2.370	1.77
2.372	1.77
2.373	1.77
2.375	1.77
2.376	1.77
2.378	1.77
2.379	1.77
2.381	1.77
2.382	1.77
2.384	1.77
2.385	1.77
2.386	1.77
2.388	1.76
2.389	1.77
2.391	1.76
2.392	1.76
2.394	1.76
2.395	1.76
2.397	1.76
2.398	1.76
2.400	1.76
2.401	1.76
2.403	1.76
2.405	1.76
2.406	1.76
2.408	1.76
2.409	1.76
2.411	1.76
2.412	1.76
2.414	1.76
2.415	1.76
2.417	1.76
2.418	1.76
2.420	1.76
2.421	1.76
2.422	1.75
2.424	1.75
2.425	1.75
2.427	1.75
2.428	1.75
2.430	1.75
2.431	1.75
2.433	1.75
2.434	1.75
2.436	1.75
2.438	1.75
2.439	1.75
2.441	1.75
2.442	1.74
2.444	1.74
2.445	1.74
2.447	1.74
2.448	1.74
2.450	1.74
2.451	1.74
2.453	1.74
2.454	1.74
2.455	1.74
2.457	1.74
2.458	1.74
2.460	1.73
2.461	1.73
2.463	1.73
2.464	1.73
2.466	1.73
2.467	1.73
2.469	1.73
2.470	1.73
2.472	1.73
2.474	1.73
2.475	1.73
2.477	1.73
2.478	1.73
2.480	1.73
2.481	1.73
2.483	1.73
2.484	1.73
2.486	1.73
2.487	1.73
2.489	1.73
2.490	1.73
2.491	1.73
2.493	1.73
2.494	1.73
2.496	1.73
2.497	1.73
2.499	1.73
2.500	1.73
2.502	1.74
2.503	1.73
2.505	1.73
2.507	1.74
2.508	1.73
2.510	1.74
2.511	1.74
2.513	1.74
2.514	1.74
2.516	1.74
2.517	1.74
2.519	1.74
2.520	1.74
2.522	1.74
2.523	1.74
2.524	1.75
2.526	1.75
2.527	1.75
2.529	1.75
2.530	1.75
2.532	1.75
2.533	1.75
2.535	1.75
2.536	1.76
2.538	1.76
2.539	1.76
2.541	1.76
2.543	1.76
2.544	1.76
2.546	1.76
2.547	1.76
2.549	1.76
2.550	1.76
2.552	1.76
2.553	1.77
2.555	1.77
2.556	1.77
2.557	1.77
2.559	1.77
2.560	1.77
2.562	1.77
2.563	1.77
2.565	1.77
2.566	1.77
2.568	1.77
2.569	1.77
2.571	1.78
2.572	1.78
2.574	1.78
2.576	1.78
2.577	1.78
2.579	1.78
2.580	1.78
2.582	1.78
2.583	1.78
2.585	1.78
2.586	1.78
2.588	1.78
2.589	1.78
2.591	1.79
2.592	1.79
2.593	1.79
2.595	1.79
2.596	1.79
2.598	1.79
2.599	1.79
2.601	1.79
2.602	1.79
2.604	1.79
2.605	1.79
2.607	1.79
2.609	1.79
2.610	1.79
2.612	1.79
2.613	1.79
2.615	1.79
2.616	1.79
2.618	1.79
2.619	1.79
2.621	1.79
2.622	1.79
2.624	1.79
2.625	1.79
2.626	1.79
2.628	1.79
2.629	1.79
2.631	1.79
2.632	1.79
2.634	1.79
2.635	1.79
2.637	1.79
2.638	1.79
2.640	1.79
2.641	1.79
2.643	1.79
2.645	1.79
2.646	1.79
2.648	1.79
2.649	1.79
2.651	1.79
2.652	1.79
2.654	1.79
2.655	1.79
2.657	1.79
2.658	1.79
2.659	1.79
2.661	1.79
2.662	1.79
2.664	1.79
2.665	1.79
2.667	1.79
2.668	1.79
2.670	1.79
2.671	1.79
2.673	1.79
2.674	1.79
2.676	1.79
2.678	1.79
2.679	1.79
2.681	1.79
2.682	1.79
2.684	1.79
2.685	1.79
2.687	1.79
2.688	1.79
2.690	1.79
2.691	1.79
2.693	1.79
2.694	1.79
2.695	1.79
2.697	1.79
2.698	1.79
2.700	1.79
2.701	1.79
2.703	1.79
2.704	1.79
2.706	1.79
2.707	1.79
2.709	1.79
2.711	1.79
2.712	1.80
2.714	1.80
2.715	1.80
2.717	1.80
2.718	1.80
2.720	1.80
2.721	1.80
2.723	1.80
2.724	1.80
2.726	1.80
2.727	1.80
2.728	1.80
2.730	1.80
2.731	1.80
2.733	1.80
2.734	1.80
2.736	1.81
2.737	1.81
2.739	1.81
2.740	1.81
2.742	1.81
2.743	1.81
2.745	1.81
2.747	1.81
2.748	1.81
2.750	1.82
2.751	1.82
2.753	1.82
2.754	1.82
2.756	1.82
2.757	1.83
2.759	1.83
2.760	1.83
2.761	1.83
2.763	1.83
2.764	1.84
2.766	1.84
2.767	1.84
2.769	1.85
2.770	1.85
2.772	1.85
2.773	1.86
2.775	1.86
2.776	1.86
2.778	1.86
2.780	1.87
2.781	1.87
2.783	1.87
2.784	1.88
2.786	1.88
2.787	1.88
2.789	1.89
2.790	1.89
2.792	1.89
2.793	1.90
2.795	1.90
2.796	1.90
2.797	1.91
2.799	1.91
2.800	1.91
2.802	1.91
2.803	1.92
2.805	1.92
2.806	1.93
2.808	1.93
2.809	1.93
2.811	1.94
2.813	1.94
2.814	1.95
2.816	1.95
2.817	1.95
2.819	1.96
2.820	1.96
2.822	1.96
2.823	1.97
2.825	1.97
2.826	1.97
2.828	1.98
2.829	1.98
2.830	1.99
2.832	1.99
2.833	2.00
2.835	2.00
2.836	2.00
2.838	2.01
2.839	2.01
2.841	2.01
2.842	2.02
2.844	2.02
2.845	2.03
2.847	2.03
2.849	2.04
2.850	2.04
2.852	2.05
2.853	2.05
2.855	2.05
2.856	2.06
2.858	2.06
2.859	2.07
2.861	2.07
2.862	2.07
2.864	2.08
2.865	2.08
2.866	2.08
2.868	2.08
2.869	2.09
2.871	2.09
2.872	2.10
2.874	2.10
2.875	2.10
2.877	2.11
2.878	2.11
2.880	2.11
2.882	2.11
2.883	2.12
2.885	2.12
2.886	2.12
2.888	2.13
2.889	2.13
2.891	2.13
2.892	2.14
2.894	2.14
2.895	2.14
2.897	2.15
2.898	2.15
2.899	2.15
2.901	2.15
2.902	2.15
2.904	2.16
2.905	2.16
2.907	2.16
2.908	2.16
2.910	2.17
2.911	2.17
2.913	2.17
2.914	2.17
2.916	2.17
2.918	2.18
2.919	2.18
2.921	2.18
2.922	2.18
2.924	2.18
2.925	2.19
2.927	2.19
2.928	2.19
2.930	2.19
2.931	2.19
2.932	2.20
2.934	2.20
2.935	2.20
2.937	2.20
2.938	2.20
2.940	2.20
2.941	2.20
2.943	2.21
2.944	2.21
2.946	2.21
2.947	2.21
2.949	2.21
2.951	2.21
2.952	2.21
2.954	2.22
2.955	2.22
2.957	2.22
2.958	2.22
2.960	2.22
2.961	2.22
2.963	2.22
2.964	2.22
2.966	2.22
2.967	2.23
2.968	2.23
2.970	2.23
2.971	2.23
2.973	2.23
2.974	2.23
2.976	2.23
2.977	2.23
2.979	2.23
2.980	2.23
2.982	2.24
2.984	2.24
2.985	2.24
2.987	2.24
2.988	2.24
2.990	2.24
2.991	2.24
2.993	2.24
2.994	2.24
2.996	2.25
2.997	2.25
2.999	2.25
3.000	2.25
3.001	2.25
3.003	2.25
3.004	2.25
3.006	2.25
3.007	2.25
3.009	2.26
3.010	2.26
3.012	2.26
3.013	2.26
3.015	2.26
3.016	2.26
3.018	2.26
3.020	2.26
3.021	2.26
3.023	2.27
3.024	2.27
3.026	2.27
3.027	2.27
3.029	2.27
3.030	2.27
3.032	2.27
3.033	2.28
3.034	2.28
3.036	2.28
3.037	2.28
3.039	2.28
3.040	2.28
3.042	2.28
3.043	2.28
3.045	2.28
3.046	2.28
3.048	2.28
3.049	2.28
3.051	2.29
3.053	2.29
3.054	2.29
3.056	2.29
3.057	2.29
3.059	2.29
3.060	2.29
3.062	2.29
3.063	2.29
3.065	2.29
3.066	2.29
3.068	2.29
3.069	2.29
3.070	2.29
3.072	2.29
3.073	2.30
3.075	2.30
3.076	2.30
3.078	2.30
3.079	2.30
3.081	2.30
3.082	2.30
3.084	2.30
3.086	2.30
3.087	2.30
3.089	2.30
3.090	2.31
3.092	2.31
3.093	2.31
3.095	2.31
3.096	2.31
3.098	2.31
3.099	2.31
3.101	2.31
3.102	2.31
3.103	2.31
3.105	2.31
3.106	2.32
3.108	2.32
3.109	2.32
3.111	2.32
3.112	2.32
3.114	2.32
3.115	2.32
3.117	2.32
3.118	2.32
3.120	2.32
3.122	2.32
3.123	2.32
3.125	2.32
3.126	2.32
3.128	2.33
3.129	2.33
3.131	2.33
3.132	2.33
3.134	2.33
3.135	2.33
3.136	2.33
3.138	2.33
3.139	2.33
3.141	2.33
3.142	2.33
3.144	2.33
3.145	2.33
3.147	2.33
3.148	2.33
3.150	2.33
3.151	2.33
3.153	2.33
3.155	2.34
3.156	2.33
3.158	2.33
3.159	2.33
3.161	2.33
3.162	2.34
3.164	2.34
3.165	2.34
3.167	2.34
3.168	2.34
3.170	2.34
3.171	2.34
3.172	2.34
3.174	2.34
3.175	2.34
3.177	2.34
3.178	2.34
3.180	2.34
3.181	2.34
3.183	2.35
3.184	2.35
3.186	2.35
3.188	2.35
3.189	2.35
3.191	2.35
3.192	2.35
3.194	2.35
3.195	2.35
3.197	2.35
3.198	2.35
3.200	2.35
3.201	2.35
3.203	2.36
3.204	2.36
3.205	2.36
3.207	2.36
3.208	2.36
3.210	2.36
3.211	2.36
3.213	2.37
3.214	2.37
3.216	2.37
3.217	2.37
3.219	2.37
3.220	2.37
3.222	2.38
3.224	2.38
3.225	2.38
3.227	2.38
3.228	2.38
3.230	2.38
3.231	2.39
3.233	2.39
3.234	2.39
3.236	2.39
3.237	2.39
3.239	2.39
3.240	2.39
3.241	2.40
3.243	2.40
3.244	2.40
3.246	2.40
3.247	2.40
3.249	2.41
3.250	2.41
3.252	2.41
3.253	2.41
3.255	2.41
3.257	2.41
3.258	2.41
3.260	2.41
3.261	2.42
3.263	2.42
3.264	2.42
3.266	2.42
3.267	2.42
3.269	2.43
3.270	2.43
3.272	2.43
3.273	2.43
3.274	2.43
3.276	2.43
3.277	2.43
3.279	2.43
3.280	2.43
3.282	2.44
3.283	2.43
3.285	2.44
3.286	2.44
3.288	2.44
3.289	2.44
3.291	2.44
3.293	2.44
3.294	2.44
3.296	2.44
3.297	2.44
3.299	2.44
3.300	2.44
3.302	2.44
3.303	2.44
3.305	2.44
3.306	2.44
3.307	2.44
3.309	2.44
3.310	2.44
3.312	2.44
3.313	2.44
3.315	2.44
3.316	2.44
3.318	2.44
3.319	2.44
3.321	2.44
3.322	2.44
3.324	2.43
3.326	2.44
3.327	2.43
3.329	2.43
3.330	2.43
3.332	2.43
3.333	2.43
3.335	2.43
3.336	2.43
3.338	2.43
3.339	2.43
3.341	2.43
3.342	2.43
3.343	2.42
3.345	2.42
3.346	2.43
3.348	2.42
3.349	2.42
3.351	2.42
3.352	2.42
3.354	2.42
3.355	2.42
3.357	2.42
3.359	2.42
3.360	2.42
3.362	2.41
3.363	2.41
3.365	2.41
3.366	2.41
3.368	2.41
3.369	2.41
3.371	2.41
3.372	2.41
3.374	2.41
3.375	2.40
3.376	2.40
3.378	2.40
3.379	2.40
3.381	2.40
3.382	2.40
3.384	2.40
3.385	2.40
3.387	2.40
3.388	2.40
3.390	2.40
3.391	2.40
3.393	2.40
3.395	2.39
3.396	2.39
3.398	2.39
3.399	2.39
3.401	2.39
3.402	2.39
3.404	2.39
3.405	2.39
3.407	2.39
3.408	2.39
3.409	2.39
3.411	2.39
3.412	2.39
3.414	2.39
3.415	2.38
3.417	2.38
3.418	2.38
3.420	2.38
3.421	2.38
3.423	2.38
3.424	2.38
3.426	2.38
3.428	2.38
3.429	2.38
3.431	2.38
3.432	2.38
3.434	2.38
3.435	2.38
3.437	2.38
3.438	2.38
3.440	2.38
3.441	2.38
3.443	2.38
3.444	2.38
3.445	2.38
3.447	2.38
3.448	2.38
3.450	2.38
3.451	2.38
3.453	2.38
3.454	2.38
3.456	2.38
3.457	2.38
3.459	2.38
3.461	2.38
3.462	2.38
3.464	2.38
3.465	2.38
3.467	2.38
3.468	2.38
3.470	2.38
3.471	2.38
3.473	2.38
3.474	2.38
3.476	2.38
3.477	2.38
3.478	2.38
3.480	2.38
3.481	2.38
3.483	2.38
3.484	2.38
3.486	2.38
3.487	2.38
3.489	2.38
3.490	2.38
3.492	2.38
3.493	2.38
3.495	2.38
3.497	2.38
3.498	2.38
3.500	2.38
3.501	2.38
3.503	2.39
3.504	2.38
3.506	2.39
3.507	2.38
3.509	2.39
3.510	2.39
3.511	2.38
3.513	2.38
3.514	2.38
3.516	2.39
3.517	2.38
3.519	2.39
3.520	2.39
3.522	2.39
3.523	2.39
3.525	2.39
3.526	2.39
3.528	2.39
3.530	2.39
3.531	2.39
3.533	2.39
3.534	2.39
3.536	2.39
3.537	2.39
3.539	2.39
3.540	2.39
3.542	2.39
3.543	2.39
3.545	2.39
3.546	2.39
3.547	2.39
3.549	2.39
3.550	2.39
3.552	2.39
3.553	2.39
3.555	2.39
3.556	2.39
3.558	2.39
3.559	2.39
3.561	2.39
3.563	2.40
3.564	2.40
3.566	2.40
3.567	2.40
3.569	2.40
3.570	2.40
3.572	2.40
3.573	2.40
3.575	2.40
3.576	2.40
3.578	2.40
3.579	2.40
3.580	2.40
3.582	2.40
3.583	2.41
3.585	2.41
3.586	2.41
3.588	2.41
3.589	2.41
3.591	2.41
3.592	2.41
3.594	2.41
3.595	2.41
3.597	2.41
3.599	2.42
3.600	2.42
3.602	2.42
3.603	2.42
3.605	2.42
3.606	2.42
3.608	2.42
3.609	2.42
3.611	2.43
3.612	2.43
3.614	2.43
3.615	2.43
3.616	2.43
3.618	2.43
3.619	2.43
3.621	2.44
3.622	2.44
3.624	2.44
3.625	2.44
3.627	2.44
3.628	2.44
3.630	2.44
3.632	2.44
3.633	2.44
3.635	2.44
3.636	2.45
3.638	2.45
3.639	2.45
3.641	2.45
3.642	2.45
3.644	2.45
3.645	2.45
3.647	2.45
3.648	2.45
3.649	2.45
3.651	2.45
3.652	2.45
3.654	2.45
3.655	2.45
3.657	2.45
3.658	2.46
3.660	2.45
3.661	2.46
3.663	2.46
3.664	2.46
3.666	2.46
3.668	2.46
3.669	2.46
3.671	2.46
3.672	2.46
3.674	2.46
3.675	2.46
3.677	2.46
3.678	2.46
3.680	2.46
3.681	2.46
3.682	2.46
3.684	2.46
3.685	2.46
3.687	2.46
3.688	2.46
3.690	2.46
3.691	2.46
3.693	2.46
3.694	2.46
3.696	2.46
3.697	2.46
3.699	2.46
3.701	2.46
3.702	2.46
3.704	2.46
3.705	2.46
3.707	2.46
3.708	2.46
3.710	2.46
3.711	2.45
3.713	2.45
3.714	2.45
3.716	2.45
3.717	2.45
3.718	2.45
3.720	2.45
3.721	2.45
3.723	2.45
3.724	2.45
3.726	2.44
3.727	2.44
3.729	2.44
3.730	2.44
3.732	2.44
3.734	2.44
3.735	2.44
3.737	2.43
3.738	2.43
3.740	2.43
3.741	2.43
3.743	2.43
3.744	2.43
3.746	2.42
3.747	2.42
3.749	2.42
3.750	2.42
3.751	2.42
3.753	2.42
3.754	2.42
3.756	2.41
3.757	2.41
3.759	2.41
3.760	2.41
3.762	2.41
3.763	2.41
3.765	2.41
3.766	2.40
3.768	2.40
3.770	2.40
3.771	2.40
3.773	2.40
3.774	2.40
3.776	2.40
3.777	2.40
3.779	2.40
3.780	2.39
3.782	2.39
3.783	2.39
3.784	2.39
3.786	2.39
3.787	2.39
3.789	2.39
3.790	2.39
3.792	2.39
3.793	2.38
3.795	2.39
3.796	2.38
3.798	2.38
3.799	2.38
3.801	2.38
3.803	2.38
3.804	2.38
3.806	2.38
3.807	2.38
3.809	2.38
3.810	2.38
3.812	2.38
3.813	2.38
3.815	2.38
3.816	2.38
3.818	2.38
3.819	2.37
3.820	2.38
3.822	2.38
3.823	2.37
3.825	2.37
3.826	2.37
3.828	2.37
3.829	2.37
3.831	2.37
3.832	2.37
3.834	2.37
3.836	2.37
3.837	2.37
3.839	2.37
3.840	2.36
3.842	2.36
3.843	2.36
3.845	2.36
3.846	2.36
3.848	2.36
3.849	2.36
3.851	2.35
3.852	2.35
3.853	2.35
3.855	2.35
3.856	2.35
3.858	2.35
3.859	2.35
3.861	2.34
3.862	2.34
3.864	2.34
3.865	2.34
3.867	2.34
3.868	2.33
3.870	2.33
3.872	2.33
3.873	2.33
3.875	2.33
3.876	2.33
3.878	2.33
3.879	2.33
3.881	2.32
3.882	2.32
3.884	2.32
3.885	2.32
3.886	2.31
3.888	2.31
3.889	2.31
3.891	2.31
3.892	2.31
3.894	2.31
3.895	2.31
3.897	2.31
3.898	2.31
3.900	2.30
3.901	2.30
3.903	2.30
3.905	2.30
3.906	2.30
3.908	2.30
3.909	2.29
3.911	2.29
3.912	2.29
3.914	2.29
3.915	2.29
3.917	2.29
3.918	2.29
3.920	2.29
3.921	2.29
3.922	2.29
3.924	2.29
3.925	2.28
3.927	2.28
3.928	2.28
3.930	2.28
3.931	2.28
3.933	2.28
3.934	2.28
3.936	2.28
3.938	2.28
3.939	2.27
3.941	2.27
3.942	2.27
3.944	2.27
3.945	2.27
3.947	2.27
3.948	2.27
3.950	2.27
3.951	2.27
3.953	2.27
3.954	2.27
3.955	2.26
3.957	2.26
3.958	2.27
3.960	2.26
3.961	2.26
3.963	2.26
3.964	2.26
3.966	2.26
3.967	2.26
3.969	2.26
3.970	2.26
3.972	2.26
3.974	2.26
3.975	2.26
3.977	2.26
3.978	2.26
3.980	2.26
3.981	2.26
3.983	2.26
3.984	2.25
3.986	2.25
3.987	2.25
3.989	2.25
3.990	2.25
3.991	2.26
3.993	2.25
3.994	2.25
3.996	2.25
3.997	2.26
3.999	2.25
4.001	2.25
4.002	2.25
4.003	2.25
4.005	2.25
4.006	2.25
4.008	2.25
4.010	2.25
4.011	2.25
4.012	2.25
4.014	2.25
4.016	2.25
4.017	2.25
4.018	2.25
4.020	2.25
4.022	2.25
4.023	2.25
4.024	2.25
4.026	2.25
4.028	2.25
4.029	2.25
4.030	2.25
4.032	2.25
4.034	2.25
4.035	2.25
4.036	2.25
4.038	2.24
4.040	2.24
4.041	2.24
4.043	2.24
4.044	2.24
4.045	2.24
4.047	2.24
4.049	2.24
4.050	2.24
4.051	2.24
4.053	2.24
4.055	2.24
4.056	2.24
4.057	2.24
4.059	2.24
4.061	2.24
4.062	2.24
4.063	2.24
4.065	2.24
4.067	2.24
4.068	2.24
4.069	2.24
4.071	2.24
4.073	2.24
4.074	2.24
4.076	2.24
4.077	2.24
4.078	2.24
4.080	2.23
4.082	2.23
4.083	2.23
4.084	2.23
4.086	2.23
4.088	2.24
4.089	2.23
4.090	2.23
4.092	2.23
4.094	2.24
4.095	2.23
4.096	2.24
4.098	2.23
4.100	2.23
4.101	2.23
4.102	2.23
4.104	2.23
4.106	2.23
4.107	2.23
4.109	2.23
4.110	2.23
4.111	2.23
4.113	2.23
4.115	2.23
4.116	2.23
4.117	2.23
4.119	2.23
4.121	2.23
4.122	2.23
4.123	2.23
4.125	2.22
4.127	2.22
4.128	2.22
4.129	2.22
4.131	2.22
4.133	2.22
4.134	2.22
4.135	2.22
4.137	2.22
4.139	2.22
4.140	2.22
4.141	2.21
4.143	2.21
4.144	2.21
4.146	2.21
4.148	2.21
4.149	2.21
4.150	2.21
4.152	2.21
4.154	2.20
4.155	2.20
4.156	2.20
4.158	2.20
4.160	2.20
4.161	2.20
4.162	2.19
4.164	2.19
4.166	2.19
4.167	2.19
4.168	2.19
4.170	2.19
4.172	2.19
4.173	2.19
4.174	2.18
4.176	2.18
4.177	2.18
4.179	2.18
4.181	2.18
4.182	2.17
4.183	2.17
4.185	2.17
4.187	2.17
4.188	2.17
4.189	2.17
4.191	2.17
4.193	2.16
4.194	2.16
4.195	2.16
4.197	2.16
4.199	2.16
4.200	2.16
4.201	2.15
4.203	2.15
4.205	2.15
4.206	2.15
4.207	2.15
4.209	2.14
4.210	2.14
4.212	2.14
4.214	2.14
4.215	2.14
4.216	2.14
4.218	2.14
4.220	2.14
4.221	2.13
4.222	2.13
4.224	2.13
4.226	2.13
4.227	2.13
4.228	2.13
4.230	2.13
4.232	2.13
4.233	2.13
4.234	2.12
4.236	2.12
4.238	2.12
4.239	2.12
4.240	2.12
4.242	2.12
4.244	2.11
4.245	2.11
4.247	2.11
4.248	2.11
4.249	2.11
4.251	2.11
4.253	2.11
4.254	2.11
4.255	2.10
4.257	2.10
4.259	2.10
4.260	2.10
4.261	2.10
4.263	2.10
4.265	2.09
4.266	2.09
4.267	2.09
4.269	2.09
4.271	2.09
4.272	2.09
4.273	2.09
4.275	2.09
4.277	2.09
4.278	2.08
4.280	2.08
4.281	2.08
4.282	2.08
4.284	2.08
4.286	2.08
4.287	2.08
4.288	2.08
4.290	2.08
4.292	2.08
4.293	2.08
4.294	2.08
4.296	2.07
4.298	2.07
4.299	2.07
4.300	2.07
4.302	2.07
4.304	2.07
4.305	2.06
4.306	2.06
4.308	2.06
4.310	2.06
4.311	2.06
4.313	2.06
4.314	2.06
4.315	2.06
4.317	2.06
4.319	2.05
4.320	2.05
4.321	2.05
4.323	2.05
4.325	2.05
4.326	2.05
4.327	2.05
4.329	2.04
4.331	2.04
4.332	2.04
4.333	2.04
4.335	2.04
4.337	2.04
4.338	2.04
4.339	2.03
4.341	2.03
4.343	2.03
4.344	2.03
4.345	2.03
4.347	2.03
4.348	2.03
4.350	2.03
4.352	2.03
4.353	2.03
4.354	2.03
4.356	2.02
4.358	2.02
4.359	2.02
4.360	2.02
4.362	2.02
4.364	2.02
4.365	2.02
4.366	2.02
4.368	2.02
4.370	2.02
4.371	2.01
4.372	2.02
4.374	2.01
4.376	2.01
4.377	2.01
4.378	2.01
4.380	2.01
4.381	2.01
4.383	2.00
4.385	2.00
4.386	2.00
4.387	2.00
4.389	2.00
4.391	2.00
4.392	2.00
4.393	2.00
4.395	2.00
4.397	2.00
4.398	1.99
4.399	1.99
4.401	1.99
4.403	1.99
4.404	1.99
4.405	1.99
4.407	1.99
4.409	1.99
4.410	1.99
4.411	1.99
4.413	1.99
4.415	1.98
4.416	1.98
4.418	1.98
4.419	1.98
4.420	1.98
4.422	1.98
4.424	1.98
4.425	1.98
4.426	1.98
4.428	1.98
4.430	1.98
4.431	1.98
4.432	1.98
4.434	1.98
4.436	1.98
4.437	1.98
4.438	1.98
4.440	1.98
4.442	1.98
4.443	1.98
4.444	1.98
4.446	1.98
4.448	1.98
4.449	1.98
4.451	1.98
4.452	1.98
4.453	1.98
4.455	1.98
4.457	1.98
4.458	1.98
4.459	1.98
4.461	1.98
4.463	1.98
4.464	1.98
4.465	1.98
4.467	1.98
4.469	1.98
4.470	1.98
4.471	1.98
4.473	1.98
4.475	1.98
4.476	1.98
4.477	1.98
4.479	1.98
4.481	1.98
4.482	1.98
4.484	1.98
4.485	1.98
4.486	1.98
4.488	1.98
4.490	1.98
4.491	1.98
4.492	1.98
4.494	1.98
4.496	1.98
4.497	1.98
4.498	1.98
4.500	1.98
4.502	1.98
4.503	1.98
4.504	1.98
4.506	1.98
4.508	1.98
4.509	1.98
4.510	1.98
4.512	1.98
4.514	1.98
4.515	1.98
4.516	1.98
4.518	1.97
4.519	1.98
4.521	1.97
4.523	1.98
4.524	1.98
4.525	1.98
4.527	1.98
4.529	1.98
4.530	1.98
4.531	1.98
4.533	1.98
4.535	1.98
4.536	1.98
4.537	1.98
4.539	1.97
4.541	1.98
4.542	1.98
4.543	1.98
4.545	1.98
4.547	1.98
4.548	1.98
4.549	1.98
4.551	1.98
4.552	1.98
4.554	1.98
4.556	1.98
4.557	1.98
4.558	1.98
4.560	1.98
4.562	1.98
4.563	1.98
4.564	1.98
4.566	1.98
4.568	1.98
4.569	1.98
4.570	1.98
4.572	1.98
4.574	1.98
4.575	1.98
4.576	1.98
4.578	1.98
4.580	1.98
4.581	1.98
4.582	1.98
4.584	1.98
4.585	1.98
4.587	1.98
4.589	1.99
4.590	1.99
4.591	1.99
4.593	1.99
4.595	1.99
4.596	1.99
4.597	1.99
4.599	1.99
4.601	1.99
4.602	1.99
4.603	1.99
4.605	1.99
4.607	1.99
4.608	1.99
4.609	1.99
4.611	1.99
4.613	1.99
4.614	1.99
4.615	1.99
4.617	1.99
4.619	1.99
4.620	1.99
4.622	1.99
4.623	2.00
4.624	2.00
4.626	2.00
4.628	2.00
4.629	2.00
4.630	2.00
4.632	2.00
4.634	2.00
4.635	2.00
4.636	2.00
4.638	2.01
4.640	2.01
4.641	2.01
4.642	2.01
4.644	2.01
4.646	2.01
4.647	2.02
4.648	2.02
4.650	2.02
4.652	2.02
4.653	2.02
4.655	2.02
4.656	2.02
4.657	2.03
4.659	2.03
4.661	2.03
4.662	2.03
4.663	2.03
4.665	2.03
4.667	2.04
4.668	2.04
4.669	2.04
4.671	2.04
4.673	2.04
4.674	2.04
4.675	2.04
4.677	2.04
4.679	2.04
4.680	2.05
4.681	2.05
4.683	2.05
4.685	2.05
4.686	2.05
4.688	2.05
4.689	2.05
4.690	2.05
4.692	2.05
4.694	2.05
4.695	2.05
4.696	2.05
4.698	2.05
4.700	2.05
4.701	2.05
4.702	2.05
4.704	2.05
4.706	2.05
4.707	2.05
4.708	2.05
4.710	2.05
4.712	2.05
4.713	2.04
4.714	2.04
4.716	2.04
4.718	2.04
4.719	2.04
4.720	2.04
4.722	2.04
4.723	2.04
4.725	2.04
4.727	2.04
4.728	2.04
4.729	2.04
4.731	2.03
4.733	2.03
4.734	2.03
4.735	2.03
4.737	2.03
4.739	2.03
4.740	2.03
4.741	2.03
4.743	2.02
4.745	2.02
4.746	2.02
4.747	2.02
4.749	2.02
4.751	2.02
4.752	2.02
4.753	2.02
4.755	2.01
4.756	2.01
4.758	2.01
4.760	2.01
4.761	2.01
4.762	2.01
4.764	2.01
4.766	2.01
4.767	2.01
4.768	2.01
4.770	2.00
4.772	2.00
4.773	2.00
4.774	2.00
4.776	2.00
4.778	2.00
4.779	1.99
4.780	1.99
4.782	1.99
4.784	1.99
4.785	1.99
4.786	1.99
4.788	1.99
4.790	1.99
4.791	1.98
4.793	1.98
4.794	1.98
4.795	1.98
4.797	1.97
4.799	1.97
4.800	1.97
4.801	1.97
4.803	1.97
4.805	1.97
4.806	1.96
4.807	1.96
4.809	1.96
4.811	1.96
4.812	1.95
4.813	1.95
4.815	1.95
4.817	1.95
4.818	1.95
4.819	1.94
4.821	1.94
4.823	1.94
4.824	1.94
4.826	1.94
4.827	1.93
4.828	1.93
4.830	1.93
4.832	1.92
4.833	1.92
4.834	1.92
4.836	1.92
4.838	1.91
4.839	1.91
4.840	1.91
4.842	1.91
4.844	1.91
4.845	1.90
4.846	1.90
4.848	1.90
4.850	1.90
4.851	1.89
4.852	1.89
4.854	1.89
4.856	1.89
4.857	1.88
4.859	1.88
4.860	1.88
4.861	1.88
4.863	1.88
4.865	1.88
4.866	1.88
4.867	1.88
4.869	1.87
4.871	1.87
4.872	1.87
4.873	1.86
4.875	1.86
4.877	1.86
4.878	1.86
4.879	1.86
4.881	1.86
4.883	1.86
4.884	1.85
4.885	1.85
4.887	1.85
4.889	1.85
4.890	1.85
4.891	1.85
4.893	1.85
4.894	1.84
4.896	1.84
4.898	1.84
4.899	1.84
4.900	1.84
4.902	1.84
4.904	1.84
4.905	1.83
4.906	1.84
4.908	1.83
4.910	1.83
4.911	1.83
4.912	1.83
4.914	1.82
4.916	1.82
4.917	1.82
4.918	1.82
4.920	1.82
4.922	1.82
4.923	1.82
4.924	1.82
4.926	1.82
4.927	1.81
4.929	1.81
4.931	1.81
4.932	1.81
4.933	1.81
4.935	1.80
4.937	1.81
4.938	1.80
4.939	1.80
4.941	1.80
4.943	1.80
4.944	1.80
4.945	1.80
4.947	1.80
4.949	1.79
4.950	1.79
4.951	1.79
4.953	1.79
4.955	1.79
4.956	1.79
4.957	1.78
4.959	1.78
4.960	1.78
4.962	1.78
4.964	1.78
4.965	1.78
4.966	1.78
4.968	1.77
4.970	1.77
4.971	1.77
4.972	1.77
4.974	1.77
4.976	1.77
4.977	1.77
4.978	1.77
4.980	1.76
4.982	1.76
4.983	1.76
4.984	1.76
4.986	1.76
4.988	1.76
4.989	1.75
4.990	1.75
4.992	1.75
4.994	1.75
4.995	1.75
4.997	1.75
4.998	1.75
4.999	1.75
5.001	1.74
5.003	1.74
5.004	1.74
5.005	1.74
5.007	1.74
5.009	1.74
5.010	1.73
5.011	1.73
5.013	1.73
5.015	1.73
5.016	1.73
5.017	1.73
5.019	1.73
5.021	1.73
5.022	1.73
5.023	1.72
5.025	1.72
5.027	1.72
5.028	1.72
5.030	1.72
5.031	1.72
5.032	1.71
5.034	1.71
5.036	1.71
5.037	1.71
5.038	1.71
5.040	1.71
5.042	1.71
5.043	1.71
5.044	1.71
5.046	1.71
5.048	1.71
5.049	1.71
5.050	1.70
5.052	1.70
5.054	1.70
5.055	1.70
5.056	1.70
5.058	1.70
5.060	1.70
5.061	1.70
5.063	1.70
5.064	1.70
5.065	1.70
5.067	1.70
5.069	1.70
5.070	1.69
5.071	1.69
5.073	1.69
5.075	1.69
5.076	1.69
5.077	1.69
5.079	1.69
5.081	1.69
5.082	1.69
5.083	1.69
5.085	1.69
5.087	1.69
5.088	1.69
5.089	1.69
5.091	1.69
5.093	1.69
5.094	1.69
5.095	1.69
5.097	1.69
5.098	1.69
5.100	1.69
5.102	1.70
5.103	1.70
5.104	1.70
5.106	1.70
5.108	1.69
5.109	1.70
5.110	1.70
5.112	1.70
5.114	1.70
5.115	1.70
5.116	1.70
5.118	1.70
5.120	1.70
5.121	1.70
5.122	1.70
5.124	1.70
5.126	1.70
5.127	1.70
5.128	1.70
5.130	1.70
5.131	1.70
5.133	1.70
5.135	1.71
5.136	1.71
5.137	1.71
5.139	1.71
5.141	1.71
5.142	1.71
5.143	1.71
5.145	1.71
5.147	1.71
5.148	1.71
5.149	1.71
5.151	1.71
5.153	1.71
5.154	1.71
5.155	1.71
5.157	1.71
5.159	1.71
5.160	1.71
5.161	1.71
5.163	1.71
5.165	1.71
5.166	1.71
5.168	1.71
5.169	1.71
5.170	1.71
5.172	1.71
5.174	1.71
5.175	1.71
5.176	1.71
5.178	1.72
5.180	1.72
5.181	1.72
5.182	1.72
5.184	1.72
5.186	1.72
5.187	1.72
5.188	1.72
5.190	1.72
5.192	1.72
5.193	1.72
5.194	1.72
5.196	1.72
5.198	1.72
5.199	1.72
5.201	1.72
5.202	1.72
5.203	1.72
5.205	1.72
5.207	1.72
5.208	1.72
5.209	1.72
5.211	1.72
5.213	1.72
5.214	1.72
5.215	1.72
5.217	1.72
5.219	1.72
5.220	1.72
5.221	1.72
5.223	1.72
5.225	1.72
5.226	1.72
5.227	1.72
5.229	1.72
5.231	1.72
5.232	1.72
5.234	1.72
5.235	1.72
5.236	1.72
5.238	1.72
5.240	1.72
5.241	1.72
5.242	1.72
5.244	1.72
5.246	1.72
5.247	1.72
5.248	1.72
5.250	1.72
5.252	1.72
5.253	1.72
5.254	1.72
5.256	1.72
5.258	1.72
5.259	1.73
5.260	1.73
5.262	1.73
5.264	1.73
5.265	1.73
5.266	1.73
5.268	1.73
5.269	1.73
5.271	1.73
5.273	1.73
5.274	1.73
5.275	1.73
5.277	1.73
5.279	1.73
5.280	1.73
5.281	1.73
5.283	1.73
5.285	1.73
5.286	1.73
5.287	1.73
5.289	1.73
5.291	1.73
5.292	1.73
5.293	1.74
5.295	1.74
5.297	1.74
5.298	1.74
5.299	1.74
5.301	1.74
5.302	1.74
5.304	1.74
5.306	1.74
5.307	1.74
5.308	1.74
5.310	1.74
5.312	1.74
5.313	1.74
5.314	1.74
5.316	1.74
5.318	1.75
5.319	1.74
5.320	1.75
5.322	1.74
5.324	1.74
5.325	1.74
5.326	1.75
5.328	1.74
5.330	1.74
5.331	1.75
5.332	1.74
5.334	1.75
5.335	1.75
5.337	1.75
5.339	1.75
5.340	1.75
5.341	1.75
5.343	1.75
5.345	1.75
5.346	1.74
5.347	1.74
5.349	1.75
5.351	1.75
5.352	1.74
5.353	1.75
5.355	1.75
5.357	1.74
5.358	1.75
5.359	1.74
5.361	1.74
5.363	1.74
5.364	1.74
5.365	1.74
5.367	1.74
5.369	1.74
5.370	1.74
5.372	1.74
5.373	1.74
5.374	1.74
5.376	1.74
5.378	1.74
5.379	1.74
5.380	1.74
5.382	1.74
5.384	1.74
5.385	1.74
5.386	1.74
5.388	1.74
5.390	1.73
5.391	1.73
5.392	1.73
5.394	1.73
5.396	1.73
5.397	1.73
5.398	1.73
5.400	1.73
5.402	1.73
5.403	1.73
5.405	1.73
5.406	1.73
5.407	1.73
5.409	1.73
5.411	1.73
5.412	1.73
5.413	1.73
5.415	1.73
5.417	1.73
5.418	1.73
5.419	1.72
5.421	1.72
5.423	1.72
5.424	1.72
5.425	1.72
5.427	1.72
5.429	1.72
5.430	1.72
5.431	1.72
5.433	1.72
5.435	1.72
5.436	1.72
5.438	1.72
5.439	1.72
5.440	1.72
5.442	1.71
5.444	1.71
5.445	1.71
5.446	1.71
5.448	1.71
5.450	1.71
5.451	1.71
5.452	1.71
5.454	1.71
5.456	1.71
5.457	1.71
5.458	1.71
5.460	1.71
5.462	1.70
5.463	1.70
5.464	1.70
5.466	1.70
5.468	1.70
5.469	1.70
5.470	1.70
5.472	1.70
5.473	1.70
5.475	1.70
5.477	1.70
5.478	1.69
5.479	1.69
5.481	1.69
5.483	1.69
5.484	1.69
5.485	1.69
5.487	1.69
5.489	1.69
5.490	1.69
5.491	1.68
5.493	1.68
5.495	1.68
5.496	1.68
5.497	1.68
5.499	1.68
5.501	1.68
5.502	1.68
5.503	1.68
5.505	1.67
5.506	1.67
5.508	1.67
5.510	1.67
5.511	1.67
5.512	1.67
5.514	1.67
5.516	1.67
5.517	1.67
5.518	1.67
5.520	1.67
5.522	1.66
5.523	1.66
5.524	1.66
5.526	1.66
5.528	1.66
5.529	1.65
5.530	1.65
5.532	1.65
5.534	1.65
5.535	1.65
5.536	1.65
5.538	1.64
5.540	1.64
5.541	1.64
5.543	1.64
5.544	1.63
5.545	1.63
5.547	1.63
5.549	1.63
5.550	1.62
5.551	1.62
5.553	1.62
5.555	1.62
5.556	1.62
5.557	1.61
5.559	1.61
5.561	1.61
5.562	1.60
5.563	1.60
5.565	1.60
5.567	1.60
5.568	1.60
5.569	1.59
5.571	1.59
5.573	1.59
5.574	1.59
5.576	1.58
5.577	1.58
5.578	1.58
5.580	1.58
5.582	1.57
5.583	1.57
5.584	1.57
5.586	1.57
5.588	1.57
5.589	1.56
5.590	1.56
5.592	1.56
5.594	1.56
5.595	1.56
5.596	1.55
5.598	1.55
5.600	1.55
5.601	1.55
5.602	1.54
5.604	1.54
5.606	1.54
5.607	1.54
5.609	1.54
5.610	1.54
5.611	1.53
5.613	1.53
5.615	1.53
5.616	1.53
5.617	1.53
5.619	1.52
5.621	1.52
5.622	1.52
5.623	1.52
5.625	1.52
5.627	1.51
5.628	1.51
5.629	1.51
5.631	1.51
5.633	1.51
5.634	1.51
5.635	1.51
5.637	1.50
5.639	1.50
5.640	1.50
5.641	1.50
5.643	1.50
5.644	1.50
5.646	1.49
5.648	1.49
5.649	1.49
5.650	1.49
5.652	1.49
5.654	1.49
5.655	1.49
5.656	1.49
5.658	1.49
5.660	1.48
5.661	1.48
5.662	1.48
5.664	1.48
5.666	1.48
5.667	1.48
5.668	1.48
5.670	1.48
5.672	1.48
5.673	1.47
5.674	1.47
5.676	1.47
5.677	1.47
5.679	1.47
5.681	1.47
5.682	1.46
5.683	1.46
5.685	1.46
5.687	1.46
5.688	1.46
5.689	1.46
5.691	1.46
5.693	1.46
5.694	1.46
5.695	1.46
5.697	1.46
5.699	1.45
5.700	1.45
5.701	1.45
5.703	1.45
5.705	1.45
5.706	1.45
5.707	1.45
5.709	1.45
5.710	1.45
5.712	1.44
5.714	1.44
5.715	1.44
5.716	1.44
5.718	1.44
5.720	1.44
5.721	1.43
5.722	1.43
5.724	1.43
5.726	1.43
5.727	1.43
5.728	1.43
5.730	1.43
5.732	1.43
5.733	1.43
5.734	1.43
5.736	1.43
5.738	1.42
5.739	1.42
5.740	1.42
5.742	1.42
5.744	1.42
5.745	1.42
5.747	1.42
5.748	1.42
5.749	1.42
5.751	1.42
5.753	1.42
5.754	1.42
5.755	1.42
5.757	1.41
5.759	1.41
5.760	1.41
5.761	1.41
5.763	1.41
5.765	1.41
5.766	1.41
5.767	1.41
5.769	1.41
5.771	1.41
5.772	1.41
5.773	1.41
5.775	1.41
5.777	1.41
5.778	1.41
5.780	1.41
5.781	1.41
5.782	1.41
5.784	1.41
5.786	1.41
5.787	1.41
5.788	1.41
5.790	1.41
5.792	1.41
5.793	1.41
5.794	1.41
5.796	1.41
5.798	1.41
5.799	1.41
5.800	1.41
5.802	1.41
5.804	1.41
5.805	1.41
5.806	1.42
5.808	1.42
5.810	1.42
5.811	1.42
5.813	1.42
5.814	1.42
5.815	1.42
5.817	1.42
5.819	1.42
5.820	1.42
5.821	1.42
5.823	1.42
5.825	1.43
5.826	1.43
5.827	1.43
5.829	1.43
5.831	1.43
5.832	1.43
5.833	1.43
5.835	1.43
5.837	1.43
5.838	1.43
5.839	1.44
5.841	1.44
5.843	1.44
5.844	1.44
5.845	1.44
5.847	1.44
5.848	1.44
5.850	1.44
5.852	1.44
5.853	1.44
5.854	1.44
5.856	1.44
5.858	1.44
5.859	1.45
5.860	1.44
5.862	1.44
5.864	1.45
5.865	1.45
5.866	1.45
5.868	1.45
5.870	1.45
5.871	1.45
5.872	1.45
5.874	1.45
5.876	1.45
5.877	1.44
5.878	1.45
5.880	1.45
5.881	1.44
5.883	1.44
5.885	1.44
5.886	1.44
5.887	1.45
5.889	1.44
5.891	1.44
5.892	1.44
5.893	1.44
5.895	1.44
5.897	1.44
5.898	1.44
5.899	1.44
5.901	1.44
5.903	1.44
5.904	1.43
5.905	1.43
5.907	1.43
5.909	1.43
5.910	1.43
5.911	1.43
5.913	1.43
5.915	1.43
5.916	1.43
5.918	1.42
5.919	1.42
5.920	1.42
5.922	1.42
5.924	1.42
5.925	1.42
5.926	1.42
5.928	1.42
5.930	1.42
5.931	1.41
5.932	1.41
5.934	1.41
5.936	1.41
5.937	1.41
5.938	1.41
5.940	1.40
5.942	1.40
5.943	1.40
5.944	1.40
5.946	1.40
5.948	1.40
5.949	1.40
5.951	1.40
5.952	1.39
5.953	1.39
5.955	1.39
5.957	1.39
5.958	1.39
5.959	1.39
5.961	1.39
5.963	1.38
5.964	1.38
5.965	1.38
5.967	1.38
5.969	1.38
5.970	1.38
5.971	1.38
5.973	1.38
5.975	1.37
5.976	1.37
5.977	1.37
5.979	1.37
5.981	1.37
5.982	1.37
5.984	1.36
5.985	1.36
5.986	1.36
5.988	1.36
5.990	1.36
5.991	1.36
5.992	1.36
5.994	1.35
5.996	1.35
5.997	1.35
5.998	1.35
6.000	1.35
6.002	1.35
6.003	1.35
6.004	1.35
6.006	1.34
6.008	1.34
6.009	1.34
6.010	1.34
6.012	1.34
6.014	1.34
6.015	1.33
6.016	1.33
6.018	1.33
6.019	1.33
6.021	1.33
6.023	1.33
6.024	1.33
6.025	1.32
6.027	1.32
6.029	1.32
6.030	1.32
6.031	1.32
6.033	1.32
6.035	1.31
6.036	1.31
6.037	1.31
6.039	1.31
6.041	1.31
6.042	1.31
6.043	1.30
6.045	1.30
6.047	1.30
6.048	1.30
6.049	1.30
6.051	1.30
6.052	1.30
6.054	1.29
6.056	1.29
6.057	1.29
6.058	1.29
6.060	1.29
6.062	1.29
6.063	1.29
6.064	1.29
6.066	1.29
6.068	1.29
6.069	1.29
6.070	1.29
6.072	1.28
6.074	1.28
6.075	1.28
6.076	1.28
6.078	1.28
6.080	1.28
6.081	1.27
6.082	1.27
6.084	1.27
6.085	1.27
6.087	1.27
6.089	1.27
6.090	1.27
6.091	1.27
6.093	1.27
6.095	1.27
6.096	1.27
6.097	1.27
6.099	1.26
6.101	1.26
6.102	1.27
6.103	1.27
6.105	1.26
6.107	1.27
6.108	1.27
6.109	1.26
6.111	1.26
6.113	1.26
6.114	1.26
6.115	1.26
6.117	1.26
6.119	1.26
6.120	1.26
6.122	1.26
6.123	1.26
6.124	1.26
6.126	1.27
6.128	1.26
6.129	1.26
6.130	1.26
6.132	1.27
6.134	1.26
6.135	1.26
6.136	1.26
6.138	1.26
6.140	1.26
6.141	1.26
6.142	1.26
6.144	1.26
6.146	1.27
6.147	1.27
6.148	1.27
6.150	1.27
6.152	1.27
6.153	1.27
6.155	1.27
6.156	1.27
6.157	1.27
6.159	1.27
6.161	1.27
6.162	1.27
6.163	1.27
6.165	1.27
6.167	1.27
6.168	1.27
6.169	1.27
6.171	1.27
6.173	1.27
6.174	1.27
6.175	1.27
6.177	1.27
6.179	1.27
6.180	1.27
6.181	1.28
6.183	1.28
6.185	1.28
6.186	1.28
6.188	1.28
6.189	1.28
6.190	1.28
6.192	1.28
6.194	1.28
6.195	1.28
6.196	1.28
6.198	1.28
6.200	1.28
6.201	1.28
6.202	1.28
6.204	1.28
6.206	1.28
6.207	1.28
6.208	1.28
6.210	1.28
6.212	1.28
6.213	1.28
6.214	1.28
6.216	1.28
6.218	1.28
6.219	1.28
6.220	1.28
6.222	1.28
6.223	1.28
6.225	1.28
6.227	1.29
6.228	1.29
6.229	1.29
6.231	1.29
6.233	1.28
6.234	1.28
6.235	1.29
6.237	1.29
6.239	1.29
6.240	1.29
6.241	1.29
6.243	1.29
6.245	1.29
6.246	1.29
6.247	1.29
6.249	1.29
6.251	1.29
6.252	1.29
6.253	1.29
6.255	1.29
6.256	1.29
6.258	1.29
6.260	1.29
6.261	1.29
6.262	1.29
6.264	1.29
6.266	1.29
6.267	1.29
6.268	1.29
6.270	1.29
6.272	1.29
6.273	1.29
6.274	1.29
6.276	1.29
6.278	1.29
6.279	1.29
6.280	1.29
6.282	1.29
6.284	1.29
6.285	1.29
6.286	1.29
6.288	1.29
6.290	1.29
6.291	1.29
6.293	1.29
6.294	1.29
6.295	1.29
6.297	1.29
6.299	1.29
6.300	1.29
6.301	1.29
6.303	1.29
6.305	1.29
6.306	1.29
6.307	1.29
6.309	1.29
6.311	1.29
6.312	1.29
6.313	1.29
6.315	1.28
6.317	1.29
6.318	1.28
6.319	1.29
6.321	1.29
6.323	1.28
6.324	1.28
6.326	1.28
6.327	1.28
6.328	1.28
6.330	1.28
6.332	1.28
6.333	1.28
6.334	1.28
6.336	1.28
6.338	1.28
6.339	1.28
6.340	1.28
6.342	1.28
6.344	1.28
6.345	1.28
6.346	1.28
6.348	1.28
6.350	1.28
6.351	1.28
6.352	1.28
6.354	1.28
6.356	1.28
6.357	1.28
6.359	1.28
6.360	1.28
6.361	1.28
6.363	1.28
6.365	1.28
6.366	1.28
6.367	1.27
6.369	1.27
6.371	1.27
6.372	1.27
6.373	1.27
6.375	1.27
6.377	1.27
6.378	1.27
6.379	1.27
6.381	1.27
6.383	1.28
6.384	1.27
6.385	1.27
6.387	1.27
6.389	1.27
6.390	1.27
6.391	1.27
6.393	1.27
6.394	1.27
6.396	1.27
6.398	1.28
6.399	1.28
6.400	1.28
6.402	1.28
6.404	1.28
6.405	1.28
6.406	1.28
6.408	1.28
6.410	1.28
6.411	1.28
6.412	1.28
6.414	1.28
6.416	1.28
6.417	1.28
6.418	1.28
6.420	1.28
6.422	1.28
6.423	1.28
6.424	1.28
6.426	1.28
6.427	1.28
6.429	1.28
6.431	1.28
6.432	1.28
6.433	1.28
6.435	1.28
6.437	1.28
6.438	1.28
6.439	1.28
6.441	1.28
6.443	1.28
6.444	1.28
6.445	1.28
6.447	1.28
6.449	1.28
6.450	1.28
6.451	1.28
6.453	1.28
6.455	1.28
6.456	1.28
6.457	1.28
6.459	1.28
6.460	1.29
6.462	1.28
6.464	1.28
6.465	1.28
6.466	1.28
6.468	1.28
6.470	1.28
6.471	1.28
6.472	1.28
6.474	1.28
6.476	1.28
6.477	1.28
6.478	1.28
6.480	1.28
6.482	1.28
6.483	1.28
6.484	1.28
6.486	1.28
6.488	1.28
6.489	1.28
6.490	1.28
6.492	1.28
6.494	1.28
6.495	1.28
6.497	1.28
6.498	1.28
6.499	1.27
6.501	1.27
6.503	1.27
6.504	1.27
6.505	1.27
6.507	1.27
6.509	1.27
6.510	1.27
6.511	1.27
6.513	1.27
6.515	1.27
6.516	1.27
6.517	1.27
6.519	1.26
6.521	1.26
6.522	1.27
6.523	1.26
6.525	1.26
6.527	1.26
6.528	1.26
6.530	1.26
6.531	1.25
6.532	1.26
6.534	1.25
6.536	1.26
6.537	1.25
6.538	1.25
6.540	1.25
6.542	1.25
6.543	1.25
6.544	1.25
6.546	1.25
6.548	1.25
6.549	1.25
6.550	1.24
6.552	1.24
6.554	1.24
6.555	1.24
6.556	1.24
6.558	1.24
6.560	1.24
6.561	1.24
6.563	1.24
6.564	1.23
6.565	1.23
6.567	1.23
6.569	1.23
6.570	1.23
6.571	1.22
6.573	1.22
6.575	1.22
6.576	1.22
6.577	1.22
6.579	1.22
6.581	1.22
6.582	1.22
6.583	1.22
6.585	1.21
6.587	1.21
6.588	1.21
6.589	1.21
6.591	1.21
6.593	1.21
6.594	1.21
6.595	1.21
6.597	1.21
6.598	1.21
6.600	1.21
6.602	1.21
6.603	1.20
6.604	1.20
6.606	1.20
6.608	1.20
6.609	1.20
6.610	1.20
6.612	1.20
6.614	1.20
6.615	1.20
6.616	1.20
6.618	1.20
6.620	1.19
6.621	1.19
6.622	1.20
6.624	1.19
6.626	1.19
6.627	1.19
6.628	1.19
6.630	1.19
6.631	1.19
6.633	1.19
6.635	1.19
6.636	1.19
6.637	1.19
6.639	1.19
6.641	1.19
6.642	1.19
6.643	1.19
6.645	1.19
6.647	1.19
6.648	1.19
6.649	1.19
6.651	1.19
6.653	1.19
6.654	1.19
6.655	1.19
6.657	1.19
6.659	1.19
6.660	1.19
6.661	1.19
6.663	1.19
6.665	1.19
6.666	1.19
6.668	1.19
6.669	1.19
6.670	1.19
6.672	1.19
6.674	1.18
6.675	1.18
6.676	1.18
6.678	1.19
6.680	1.18
6.681	1.18
6.682	1.18
6.684	1.18
6.686	1.18
6.687	1.18
6.688	1.18
6.690	1.18
6.692	1.18
6.693	1.18
6.694	1.18
6.696	1.18
6.698	1.18
6.699	1.18
6.701	1.18
6.702	1.18
6.703	1.17
6.705	1.17
6.707	1.17
6.708	1.17
6.709	1.17
6.711	1.17
6.713	1.17
6.714	1.17
6.715	1.17
6.717	1.17
6.719	1.17
6.720	1.17
6.721	1.17
6.723	1.17
6.725	1.17
6.726	1.17
6.727	1.17
6.729	1.17
6.731	1.17
6.732	1.17
6.734	1.17
6.735	1.17
6.736	1.17
6.738	1.17
6.740	1.17
6.741	1.17
6.742	1.17
6.744	1.16
6.746	1.17
6.747	1.16
6.748	1.16
6.750	1.16
6.752	1.16
6.753	1.16
6.754	1.16
6.756	1.16
6.758	1.16
6.759	1.16
6.760	1.16
6.762	1.16
6.764	1.16
6.765	1.15
6.766	1.15
6.768	1.15
6.769	1.15
6.771	1.15
6.773	1.15
6.774	1.15
6.775	1.15
6.777	1.15
6.779	1.15
6.780	1.15
6.781	1.15
6.783	1.15
6.785	1.15
6.786	1.14
6.787	1.15
6.789	1.15
6.791	1.14
6.792	1.14
6.793	1.15
6.795	1.15
6.797	1.15
6.798	1.14
6.799	1.14
6.801	1.15
6.802	1.14
6.804	1.14
6.806	1.14
6.807	1.14
6.808	1.14
6.810	1.14
6.812	1.14
6.813	1.14
6.814	1.14
6.816	1.14
6.818	1.14
6.819	1.14
6.820	1.14
6.822	1.14
6.824	1.14
6.825	1.14
6.826	1.14
6.828	1.14
6.830	1.14
6.831	1.14
6.832	1.14
6.834	1.14
6.835	1.14
6.837	1.14
6.839	1.14
6.840	1.14
6.841	1.14
6.843	1.14
6.845	1.14
6.846	1.14
6.847	1.14
6.849	1.14
6.851	1.14
6.852	1.14
6.853	1.14
6.855	1.14
6.857	1.14
6.858	1.14
6.859	1.14
6.861	1.14
6.863	1.14
6.864	1.14
6.865	1.14
6.867	1.14
6.869	1.14
6.870	1.14
6.872	1.14
6.873	1.14
6.874	1.14
6.876	1.14
6.878	1.14
6.879	1.14
6.880	1.14
6.882	1.13
6.884	1.13
6.885	1.13
6.886	1.13
6.888	1.13
6.890	1.13
6.891	1.13
6.892	1.13
6.894	1.13
6.896	1.13
6.897	1.13
6.898	1.13
6.900	1.13
6.902	1.13
6.903	1.13
6.905	1.12
6.906	1.12
6.907	1.12
6.909	1.12
6.911	1.12
6.912	1.12
6.913	1.12
6.915	1.12
6.917	1.12
6.918	1.12
6.919	1.12
6.921	1.12
6.923	1.12
6.924	1.12
6.925	1.12
6.927	1.12
6.929	1.12
6.930	1.12
6.931	1.12
6.933	1.12
6.935	1.12
6.936	1.12
6.938	1.12
6.939	1.12
6.940	1.11
6.942	1.11
6.944	1.11
6.945	1.11
6.946	1.11
6.948	1.11
6.950	1.11
6.951	1.11
6.952	1.11
6.954	1.11
6.956	1.11
6.957	1.11
6.958	1.11
6.960	1.11
6.962	1.11
6.963	1.11
6.964	1.11
6.966	1.11
6.968	1.11
6.969	1.11
6.970	1.11
6.972	1.11
6.973	1.11
6.975	1.10
6.977	1.10
6.978	1.10
6.979	1.10
6.981	1.10
6.983	1.10
6.984	1.10
6.985	1.10
6.987	1.10
6.989	1.10
6.990	1.10
6.991	1.10
6.993	1.10
6.995	1.10
6.996	1.10
6.997	1.09
6.999	1.09
