Position	800mA
Distance/mm	U/V

-6.999	0.52
-6.997	0.52
-6.996	0.52
-6.995	0.52
-6.993	0.52
-6.991	0.52
-6.990	0.52
-6.989	0.52
-6.987	0.51
-6.985	0.50
-6.984	0.50
-6.983	0.49
-6.981	0.49
-6.979	0.49
-6.978	0.48
-6.977	0.48
-6.975	0.48
-6.973	0.48
-6.972	0.48
-6.970	0.48
-6.969	0.47
-6.968	0.47
-6.966	0.47
-6.964	0.47
-6.963	0.47
-6.962	0.47
-6.960	0.47
-6.958	0.47
-6.957	0.47
-6.956	0.47
-6.954	0.47
-6.952	0.47
-6.951	0.47
-6.950	0.47
-6.948	0.47
-6.946	0.47
-6.945	0.47
-6.944	0.47
-6.942	0.47
-6.940	0.47
-6.939	0.47
-6.938	0.47
-6.936	0.47
-6.935	0.47
-6.933	0.47
-6.931	0.47
-6.930	0.47
-6.929	0.47
-6.927	0.47
-6.925	0.47
-6.924	0.47
-6.923	0.47
-6.921	0.47
-6.919	0.47
-6.918	0.47
-6.917	0.47
-6.915	0.47
-6.913	0.47
-6.912	0.47
-6.911	0.47
-6.909	0.47
-6.907	0.47
-6.906	0.47
-6.905	0.47
-6.903	0.47
-6.902	0.47
-6.900	0.47
-6.898	0.47
-6.897	0.47
-6.896	0.47
-6.894	0.47
-6.892	0.47
-6.891	0.47
-6.890	0.47
-6.888	0.47
-6.886	0.47
-6.885	0.47
-6.884	0.47
-6.882	0.47
-6.880	0.47
-6.879	0.47
-6.878	0.47
-6.876	0.46
-6.874	0.47
-6.873	0.47
-6.872	0.47
-6.870	0.47
-6.869	0.47
-6.867	0.47
-6.865	0.47
-6.864	0.47
-6.863	0.47
-6.861	0.47
-6.859	0.47
-6.858	0.46
-6.857	0.46
-6.855	0.46
-6.853	0.46
-6.852	0.47
-6.851	0.46
-6.849	0.46
-6.847	0.46
-6.846	0.46
-6.845	0.47
-6.843	0.46
-6.841	0.47
-6.840	0.46
-6.839	0.46
-6.837	0.46
-6.835	0.46
-6.834	0.46
-6.832	0.46
-6.831	0.46
-6.830	0.46
-6.828	0.46
-6.826	0.46
-6.825	0.46
-6.824	0.46
-6.822	0.46
-6.820	0.46
-6.819	0.46
-6.818	0.46
-6.816	0.46
-6.814	0.46
-6.813	0.46
-6.812	0.46
-6.810	0.46
-6.808	0.46
-6.807	0.46
-6.806	0.46
-6.804	0.46
-6.802	0.46
-6.801	0.46
-6.799	0.46
-6.798	0.46
-6.797	0.46
-6.795	0.46
-6.793	0.46
-6.792	0.46
-6.791	0.46
-6.789	0.46
-6.787	0.46
-6.786	0.46
-6.785	0.46
-6.783	0.46
-6.781	0.46
-6.780	0.46
-6.779	0.46
-6.777	0.46
-6.775	0.46
-6.774	0.46
-6.773	0.46
-6.771	0.46
-6.769	0.46
-6.768	0.46
-6.766	0.46
-6.765	0.46
-6.764	0.46
-6.762	0.46
-6.760	0.46
-6.759	0.46
-6.758	0.46
-6.756	0.46
-6.754	0.46
-6.753	0.46
-6.752	0.47
-6.750	0.46
-6.748	0.46
-6.747	0.46
-6.746	0.46
-6.744	0.46
-6.742	0.46
-6.741	0.46
-6.740	0.46
-6.738	0.46
-6.736	0.46
-6.735	0.46
-6.734	0.46
-6.732	0.46
-6.731	0.46
-6.729	0.46
-6.727	0.46
-6.726	0.46
-6.725	0.46
-6.723	0.46
-6.721	0.46
-6.720	0.46
-6.719	0.46
-6.717	0.46
-6.715	0.46
-6.714	0.46
-6.713	0.46
-6.711	0.46
-6.709	0.46
-6.708	0.46
-6.707	0.46
-6.705	0.46
-6.703	0.46
-6.702	0.46
-6.701	0.46
-6.699	0.46
-6.698	0.46
-6.696	0.46
-6.694	0.46
-6.693	0.46
-6.692	0.46
-6.690	0.46
-6.688	0.46
-6.687	0.46
-6.686	0.46
-6.684	0.46
-6.682	0.46
-6.681	0.46
-6.680	0.46
-6.678	0.46
-6.676	0.46
-6.675	0.46
-6.674	0.46
-6.672	0.46
-6.670	0.46
-6.669	0.46
-6.668	0.46
-6.666	0.46
-6.665	0.46
-6.663	0.46
-6.661	0.46
-6.660	0.46
-6.659	0.46
-6.657	0.46
-6.655	0.46
-6.654	0.46
-6.653	0.46
-6.651	0.46
-6.649	0.47
-6.648	0.46
-6.647	0.46
-6.645	0.46
-6.643	0.46
-6.642	0.46
-6.641	0.46
-6.639	0.47
-6.637	0.46
-6.636	0.47
-6.635	0.47
-6.633	0.47
-6.631	0.47
-6.630	0.47
-6.628	0.47
-6.627	0.47
-6.626	0.47
-6.624	0.47
-6.622	0.47
-6.621	0.47
-6.620	0.47
-6.618	0.47
-6.616	0.47
-6.615	0.47
-6.614	0.47
-6.612	0.47
-6.610	0.47
-6.609	0.47
-6.608	0.47
-6.606	0.47
-6.604	0.47
-6.603	0.47
-6.602	0.47
-6.600	0.47
-6.598	0.47
-6.597	0.47
-6.595	0.47
-6.594	0.47
-6.593	0.47
-6.591	0.47
-6.589	0.47
-6.588	0.47
-6.587	0.47
-6.585	0.47
-6.583	0.47
-6.582	0.47
-6.581	0.47
-6.579	0.47
-6.577	0.47
-6.576	0.47
-6.575	0.47
-6.573	0.47
-6.571	0.47
-6.570	0.47
-6.569	0.47
-6.567	0.47
-6.565	0.47
-6.564	0.47
-6.563	0.47
-6.561	0.47
-6.560	0.47
-6.558	0.47
-6.556	0.47
-6.555	0.47
-6.554	0.47
-6.552	0.47
-6.550	0.47
-6.549	0.47
-6.548	0.47
-6.546	0.47
-6.544	0.47
-6.543	0.47
-6.542	0.46
-6.540	0.46
-6.538	0.47
-6.537	0.46
-6.536	0.47
-6.534	0.46
-6.532	0.47
-6.531	0.47
-6.530	0.46
-6.528	0.47
-6.527	0.47
-6.525	0.46
-6.523	0.46
-6.522	0.46
-6.521	0.46
-6.519	0.46
-6.517	0.46
-6.516	0.46
-6.515	0.46
-6.513	0.46
-6.511	0.46
-6.510	0.46
-6.509	0.46
-6.507	0.46
-6.505	0.46
-6.504	0.46
-6.503	0.45
-6.501	0.45
-6.499	0.45
-6.498	0.45
-6.497	0.45
-6.495	0.45
-6.494	0.45
-6.492	0.45
-6.490	0.45
-6.489	0.45
-6.488	0.45
-6.486	0.45
-6.484	0.45
-6.483	0.45
-6.482	0.45
-6.480	0.45
-6.478	0.45
-6.477	0.45
-6.476	0.45
-6.474	0.45
-6.472	0.45
-6.471	0.45
-6.470	0.45
-6.468	0.45
-6.466	0.45
-6.465	0.44
-6.464	0.44
-6.462	0.44
-6.460	0.44
-6.459	0.44
-6.457	0.44
-6.456	0.44
-6.455	0.44
-6.453	0.44
-6.451	0.44
-6.450	0.44
-6.449	0.44
-6.447	0.44
-6.445	0.44
-6.444	0.44
-6.443	0.44
-6.441	0.44
-6.439	0.44
-6.438	0.44
-6.437	0.44
-6.435	0.44
-6.433	0.44
-6.432	0.44
-6.431	0.44
-6.429	0.44
-6.427	0.44
-6.426	0.44
-6.424	0.44
-6.423	0.44
-6.422	0.44
-6.420	0.43
-6.418	0.43
-6.417	0.44
-6.416	0.43
-6.414	0.43
-6.412	0.43
-6.411	0.43
-6.410	0.43
-6.408	0.43
-6.406	0.43
-6.405	0.43
-6.404	0.43
-6.402	0.43
-6.400	0.43
-6.399	0.43
-6.398	0.43
-6.396	0.43
-6.394	0.43
-6.393	0.43
-6.391	0.43
-6.390	0.43
-6.389	0.43
-6.387	0.43
-6.385	0.42
-6.384	0.43
-6.383	0.43
-6.381	0.42
-6.379	0.43
-6.378	0.42
-6.377	0.42
-6.375	0.42
-6.373	0.42
-6.372	0.42
-6.371	0.42
-6.369	0.42
-6.367	0.42
-6.366	0.42
-6.365	0.42
-6.363	0.42
-6.361	0.42
-6.360	0.42
-6.359	0.42
-6.357	0.42
-6.356	0.42
-6.354	0.42
-6.352	0.42
-6.351	0.42
-6.350	0.42
-6.348	0.42
-6.346	0.42
-6.345	0.42
-6.344	0.42
-6.342	0.42
-6.340	0.42
-6.339	0.42
-6.338	0.42
-6.336	0.42
-6.334	0.42
-6.333	0.42
-6.332	0.42
-6.330	0.42
-6.328	0.41
-6.327	0.41
-6.326	0.41
-6.324	0.41
-6.323	0.41
-6.321	0.41
-6.319	0.41
-6.318	0.41
-6.317	0.41
-6.315	0.41
-6.313	0.41
-6.312	0.41
-6.311	0.41
-6.309	0.41
-6.307	0.41
-6.306	0.41
-6.305	0.41
-6.303	0.41
-6.301	0.41
-6.300	0.41
-6.299	0.41
-6.297	0.41
-6.295	0.41
-6.294	0.41
-6.293	0.41
-6.291	0.41
-6.290	0.41
-6.288	0.40
-6.286	0.41
-6.285	0.40
-6.284	0.40
-6.282	0.40
-6.280	0.40
-6.279	0.40
-6.278	0.40
-6.276	0.40
-6.274	0.40
-6.273	0.41
-6.272	0.40
-6.270	0.40
-6.268	0.40
-6.267	0.40
-6.266	0.40
-6.264	0.40
-6.262	0.40
-6.261	0.40
-6.260	0.40
-6.258	0.40
-6.256	0.40
-6.255	0.40
-6.253	0.40
-6.252	0.40
-6.251	0.40
-6.249	0.40
-6.247	0.40
-6.246	0.40
-6.245	0.39
-6.243	0.39
-6.241	0.40
-6.240	0.39
-6.239	0.39
-6.237	0.39
-6.235	0.39
-6.234	0.39
-6.233	0.40
-6.231	0.39
-6.229	0.39
-6.228	0.39
-6.227	0.39
-6.225	0.39
-6.223	0.39
-6.222	0.39
-6.220	0.39
-6.219	0.39
-6.218	0.39
-6.216	0.39
-6.214	0.39
-6.213	0.39
-6.212	0.39
-6.210	0.39
-6.208	0.39
-6.207	0.39
-6.206	0.39
-6.204	0.39
-6.202	0.39
-6.201	0.39
-6.200	0.39
-6.198	0.39
-6.196	0.39
-6.195	0.39
-6.194	0.39
-6.192	0.38
-6.190	0.38
-6.189	0.38
-6.188	0.38
-6.186	0.38
-6.185	0.38
-6.183	0.38
-6.181	0.38
-6.180	0.38
-6.179	0.38
-6.177	0.38
-6.175	0.38
-6.174	0.38
-6.173	0.38
-6.171	0.38
-6.169	0.38
-6.168	0.38
-6.167	0.38
-6.165	0.38
-6.163	0.38
-6.162	0.38
-6.161	0.38
-6.159	0.38
-6.157	0.38
-6.156	0.38
-6.155	0.38
-6.153	0.38
-6.152	0.38
-6.150	0.38
-6.148	0.38
-6.147	0.38
-6.146	0.38
-6.144	0.38
-6.142	0.38
-6.141	0.38
-6.140	0.38
-6.138	0.38
-6.136	0.38
-6.135	0.38
-6.134	0.38
-6.132	0.38
-6.130	0.38
-6.129	0.38
-6.128	0.38
-6.126	0.38
-6.124	0.38
-6.123	0.38
-6.122	0.38
-6.120	0.38
-6.119	0.38
-6.117	0.38
-6.115	0.38
-6.114	0.38
-6.113	0.38
-6.111	0.38
-6.109	0.38
-6.108	0.38
-6.107	0.38
-6.105	0.38
-6.103	0.38
-6.102	0.38
-6.101	0.39
-6.099	0.39
-6.097	0.39
-6.096	0.39
-6.095	0.39
-6.093	0.39
-6.091	0.39
-6.090	0.39
-6.089	0.39
-6.087	0.39
-6.085	0.39
-6.084	0.39
-6.082	0.39
-6.081	0.39
-6.080	0.40
-6.078	0.40
-6.076	0.40
-6.075	0.40
-6.074	0.40
-6.072	0.40
-6.070	0.40
-6.069	0.40
-6.068	0.40
-6.066	0.40
-6.064	0.40
-6.063	0.40
-6.062	0.40
-6.060	0.40
-6.058	0.41
-6.057	0.41
-6.056	0.41
-6.054	0.41
-6.052	0.41
-6.051	0.41
-6.049	0.41
-6.048	0.41
-6.047	0.41
-6.045	0.41
-6.043	0.41
-6.042	0.41
-6.041	0.42
-6.039	0.42
-6.037	0.42
-6.036	0.42
-6.035	0.42
-6.033	0.42
-6.031	0.42
-6.030	0.42
-6.029	0.42
-6.027	0.42
-6.025	0.42
-6.024	0.42
-6.023	0.42
-6.021	0.42
-6.019	0.42
-6.018	0.42
-6.016	0.42
-6.015	0.42
-6.014	0.43
-6.012	0.42
-6.010	0.42
-6.009	0.42
-6.008	0.42
-6.006	0.43
-6.004	0.43
-6.003	0.43
-6.002	0.43
-6.000	0.43
-5.998	0.43
-5.997	0.43
-5.996	0.43
-5.994	0.43
-5.992	0.43
-5.991	0.43
-5.990	0.43
-5.988	0.43
-5.986	0.43
-5.985	0.43
-5.984	0.44
-5.982	0.44
-5.981	0.44
-5.979	0.44
-5.977	0.44
-5.976	0.44
-5.975	0.44
-5.973	0.44
-5.971	0.44
-5.970	0.44
-5.969	0.44
-5.967	0.44
-5.965	0.44
-5.964	0.44
-5.963	0.44
-5.961	0.44
-5.959	0.44
-5.958	0.44
-5.957	0.45
-5.955	0.45
-5.953	0.44
-5.952	0.45
-5.951	0.45
-5.949	0.45
-5.948	0.45
-5.946	0.45
-5.944	0.45
-5.943	0.45
-5.942	0.45
-5.940	0.45
-5.938	0.45
-5.937	0.45
-5.936	0.45
-5.934	0.45
-5.932	0.45
-5.931	0.45
-5.930	0.45
-5.928	0.45
-5.926	0.45
-5.925	0.45
-5.924	0.45
-5.922	0.45
-5.920	0.45
-5.919	0.45
-5.918	0.45
-5.916	0.45
-5.915	0.45
-5.913	0.45
-5.911	0.45
-5.910	0.45
-5.909	0.45
-5.907	0.45
-5.905	0.45
-5.904	0.45
-5.903	0.45
-5.901	0.45
-5.899	0.46
-5.898	0.45
-5.897	0.45
-5.895	0.46
-5.893	0.45
-5.892	0.45
-5.891	0.45
-5.889	0.45
-5.887	0.45
-5.886	0.45
-5.885	0.46
-5.883	0.46
-5.881	0.46
-5.880	0.46
-5.878	0.46
-5.877	0.46
-5.876	0.46
-5.874	0.46
-5.872	0.46
-5.871	0.45
-5.870	0.46
-5.868	0.46
-5.866	0.46
-5.865	0.46
-5.864	0.46
-5.862	0.46
-5.860	0.46
-5.859	0.46
-5.858	0.46
-5.856	0.46
-5.854	0.46
-5.853	0.46
-5.852	0.46
-5.850	0.46
-5.848	0.46
-5.847	0.46
-5.845	0.46
-5.844	0.46
-5.843	0.46
-5.841	0.46
-5.839	0.46
-5.838	0.46
-5.837	0.46
-5.835	0.46
-5.833	0.46
-5.832	0.46
-5.831	0.46
-5.829	0.46
-5.827	0.46
-5.826	0.46
-5.825	0.46
-5.823	0.46
-5.821	0.46
-5.820	0.46
-5.819	0.46
-5.817	0.46
-5.815	0.46
-5.814	0.46
-5.813	0.46
-5.811	0.46
-5.810	0.46
-5.808	0.45
-5.806	0.46
-5.805	0.46
-5.804	0.46
-5.802	0.46
-5.800	0.46
-5.799	0.46
-5.798	0.46
-5.796	0.46
-5.794	0.46
-5.793	0.46
-5.792	0.46
-5.790	0.46
-5.788	0.46
-5.787	0.46
-5.786	0.46
-5.784	0.46
-5.782	0.46
-5.781	0.46
-5.780	0.46
-5.778	0.46
-5.777	0.46
-5.775	0.46
-5.773	0.46
-5.772	0.46
-5.771	0.46
-5.769	0.46
-5.767	0.46
-5.766	0.46
-5.765	0.46
-5.763	0.46
-5.761	0.46
-5.760	0.46
-5.759	0.46
-5.757	0.46
-5.755	0.46
-5.754	0.46
-5.753	0.46
-5.751	0.46
-5.749	0.46
-5.748	0.46
-5.747	0.46
-5.745	0.46
-5.744	0.46
-5.742	0.46
-5.740	0.46
-5.739	0.46
-5.738	0.46
-5.736	0.46
-5.734	0.46
-5.733	0.46
-5.732	0.46
-5.730	0.46
-5.728	0.46
-5.727	0.46
-5.726	0.46
-5.724	0.46
-5.722	0.46
-5.721	0.46
-5.720	0.46
-5.718	0.46
-5.716	0.46
-5.715	0.46
-5.714	0.46
-5.712	0.46
-5.710	0.46
-5.709	0.46
-5.707	0.46
-5.706	0.46
-5.705	0.46
-5.703	0.46
-5.701	0.46
-5.700	0.46
-5.699	0.46
-5.697	0.46
-5.695	0.46
-5.694	0.46
-5.693	0.46
-5.691	0.46
-5.689	0.46
-5.688	0.46
-5.687	0.46
-5.685	0.46
-5.683	0.46
-5.682	0.46
-5.681	0.46
-5.679	0.46
-5.677	0.46
-5.676	0.46
-5.674	0.46
-5.673	0.46
-5.672	0.46
-5.670	0.46
-5.668	0.46
-5.667	0.46
-5.666	0.46
-5.664	0.46
-5.662	0.46
-5.661	0.46
-5.660	0.46
-5.658	0.46
-5.656	0.46
-5.655	0.46
-5.654	0.46
-5.652	0.46
-5.650	0.46
-5.649	0.46
-5.648	0.46
-5.646	0.46
-5.644	0.46
-5.643	0.46
-5.641	0.46
-5.640	0.46
-5.639	0.46
-5.637	0.46
-5.635	0.46
-5.634	0.46
-5.633	0.46
-5.631	0.46
-5.629	0.46
-5.628	0.46
-5.627	0.46
-5.625	0.46
-5.623	0.46
-5.622	0.46
-5.621	0.46
-5.619	0.46
-5.617	0.46
-5.616	0.46
-5.615	0.46
-5.613	0.46
-5.611	0.46
-5.610	0.46
-5.609	0.46
-5.607	0.46
-5.606	0.46
-5.604	0.46
-5.602	0.46
-5.601	0.46
-5.600	0.46
-5.598	0.46
-5.596	0.46
-5.595	0.46
-5.594	0.46
-5.592	0.45
-5.590	0.46
-5.589	0.46
-5.588	0.46
-5.586	0.46
-5.584	0.46
-5.583	0.46
-5.582	0.46
-5.580	0.45
-5.578	0.45
-5.577	0.45
-5.576	0.45
-5.574	0.45
-5.573	0.45
-5.571	0.45
-5.569	0.45
-5.568	0.45
-5.567	0.45
-5.565	0.45
-5.563	0.45
-5.562	0.46
-5.561	0.46
-5.559	0.45
-5.557	0.45
-5.556	0.45
-5.555	0.45
-5.553	0.45
-5.551	0.45
-5.550	0.45
-5.549	0.45
-5.547	0.45
-5.545	0.45
-5.544	0.45
-5.543	0.45
-5.541	0.45
-5.540	0.45
-5.538	0.45
-5.536	0.45
-5.535	0.45
-5.534	0.45
-5.532	0.45
-5.530	0.45
-5.529	0.45
-5.528	0.45
-5.526	0.45
-5.524	0.45
-5.523	0.45
-5.522	0.45
-5.520	0.45
-5.518	0.45
-5.517	0.45
-5.516	0.45
-5.514	0.45
-5.512	0.45
-5.511	0.45
-5.510	0.45
-5.508	0.45
-5.506	0.45
-5.505	0.45
-5.503	0.46
-5.502	0.45
-5.501	0.45
-5.499	0.45
-5.497	0.45
-5.496	0.45
-5.495	0.45
-5.493	0.45
-5.491	0.45
-5.490	0.45
-5.489	0.45
-5.487	0.45
-5.485	0.45
-5.484	0.45
-5.483	0.45
-5.481	0.45
-5.479	0.45
-5.478	0.45
-5.477	0.45
-5.475	0.45
-5.473	0.45
-5.472	0.45
-5.470	0.45
-5.469	0.45
-5.468	0.45
-5.466	0.45
-5.464	0.45
-5.463	0.45
-5.462	0.45
-5.460	0.45
-5.458	0.45
-5.457	0.45
-5.456	0.45
-5.454	0.45
-5.452	0.45
-5.451	0.45
-5.450	0.45
-5.448	0.45
-5.446	0.45
-5.445	0.45
-5.444	0.45
-5.442	0.45
-5.440	0.45
-5.439	0.45
-5.438	0.45
-5.436	0.45
-5.435	0.45
-5.433	0.45
-5.431	0.45
-5.430	0.45
-5.429	0.45
-5.427	0.45
-5.425	0.45
-5.424	0.45
-5.423	0.45
-5.421	0.45
-5.419	0.45
-5.418	0.45
-5.417	0.45
-5.415	0.45
-5.413	0.45
-5.412	0.45
-5.411	0.45
-5.409	0.45
-5.407	0.45
-5.406	0.45
-5.405	0.45
-5.403	0.45
-5.402	0.45
-5.400	0.45
-5.398	0.45
-5.397	0.45
-5.396	0.45
-5.394	0.45
-5.392	0.45
-5.391	0.45
-5.390	0.45
-5.388	0.46
-5.386	0.46
-5.385	0.46
-5.384	0.46
-5.382	0.46
-5.380	0.46
-5.379	0.46
-5.378	0.46
-5.376	0.46
-5.374	0.46
-5.373	0.46
-5.372	0.46
-5.370	0.46
-5.369	0.46
-5.367	0.46
-5.365	0.46
-5.364	0.46
-5.363	0.46
-5.361	0.46
-5.359	0.46
-5.358	0.46
-5.357	0.46
-5.355	0.46
-5.353	0.46
-5.352	0.46
-5.351	0.46
-5.349	0.46
-5.347	0.46
-5.346	0.46
-5.345	0.46
-5.343	0.46
-5.341	0.46
-5.340	0.46
-5.339	0.46
-5.337	0.46
-5.335	0.46
-5.334	0.46
-5.332	0.46
-5.331	0.47
-5.330	0.46
-5.328	0.46
-5.326	0.47
-5.325	0.47
-5.324	0.47
-5.322	0.47
-5.320	0.47
-5.319	0.47
-5.318	0.46
-5.316	0.46
-5.314	0.46
-5.313	0.46
-5.312	0.47
-5.310	0.47
-5.308	0.47
-5.307	0.47
-5.306	0.47
-5.304	0.47
-5.302	0.47
-5.301	0.47
-5.299	0.47
-5.298	0.46
-5.297	0.47
-5.295	0.47
-5.293	0.47
-5.292	0.47
-5.291	0.47
-5.289	0.47
-5.287	0.47
-5.286	0.47
-5.285	0.47
-5.283	0.47
-5.281	0.47
-5.280	0.46
-5.279	0.46
-5.277	0.46
-5.275	0.47
-5.274	0.47
-5.273	0.47
-5.271	0.47
-5.269	0.47
-5.268	0.47
-5.266	0.47
-5.265	0.47
-5.264	0.47
-5.262	0.47
-5.260	0.47
-5.259	0.47
-5.258	0.46
-5.256	0.46
-5.254	0.47
-5.253	0.47
-5.252	0.47
-5.250	0.47
-5.248	0.47
-5.247	0.47
-5.246	0.47
-5.244	0.47
-5.242	0.47
-5.241	0.47
-5.240	0.47
-5.238	0.46
-5.236	0.47
-5.235	0.47
-5.234	0.47
-5.232	0.47
-5.231	0.47
-5.229	0.47
-5.227	0.47
-5.226	0.47
-5.225	0.47
-5.223	0.47
-5.221	0.47
-5.220	0.46
-5.219	0.46
-5.217	0.46
-5.215	0.47
-5.214	0.47
-5.213	0.47
-5.211	0.47
-5.209	0.47
-5.208	0.47
-5.207	0.47
-5.205	0.47
-5.203	0.47
-5.202	0.47
-5.201	0.47
-5.199	0.47
-5.198	0.47
-5.196	0.47
-5.194	0.47
-5.193	0.47
-5.192	0.47
-5.190	0.47
-5.188	0.47
-5.187	0.47
-5.186	0.47
-5.184	0.47
-5.182	0.47
-5.181	0.47
-5.180	0.47
-5.178	0.47
-5.176	0.47
-5.175	0.47
-5.174	0.47
-5.172	0.47
-5.170	0.47
-5.169	0.47
-5.168	0.47
-5.166	0.47
-5.165	0.47
-5.163	0.47
-5.161	0.47
-5.160	0.47
-5.159	0.47
-5.157	0.47
-5.155	0.47
-5.154	0.47
-5.153	0.47
-5.151	0.47
-5.149	0.47
-5.148	0.47
-5.147	0.47
-5.145	0.47
-5.143	0.47
-5.142	0.47
-5.141	0.47
-5.139	0.47
-5.137	0.47
-5.136	0.47
-5.135	0.47
-5.133	0.47
-5.131	0.47
-5.130	0.47
-5.128	0.47
-5.127	0.47
-5.126	0.47
-5.124	0.47
-5.122	0.47
-5.121	0.47
-5.120	0.47
-5.118	0.47
-5.116	0.47
-5.115	0.47
-5.114	0.47
-5.112	0.47
-5.110	0.48
-5.109	0.48
-5.108	0.47
-5.106	0.47
-5.104	0.47
-5.103	0.47
-5.102	0.47
-5.100	0.47
-5.098	0.48
-5.097	0.48
-5.095	0.47
-5.094	0.48
-5.093	0.48
-5.091	0.48
-5.089	0.48
-5.088	0.48
-5.087	0.48
-5.085	0.48
-5.083	0.48
-5.082	0.48
-5.081	0.48
-5.079	0.48
-5.077	0.48
-5.076	0.48
-5.075	0.48
-5.073	0.48
-5.071	0.48
-5.070	0.48
-5.069	0.48
-5.067	0.48
-5.065	0.48
-5.064	0.48
-5.063	0.48
-5.061	0.48
-5.060	0.48
-5.058	0.48
-5.056	0.48
-5.055	0.49
-5.054	0.48
-5.052	0.49
-5.050	0.49
-5.049	0.49
-5.048	0.49
-5.046	0.49
-5.044	0.49
-5.043	0.49
-5.042	0.49
-5.040	0.49
-5.038	0.49
-5.037	0.49
-5.036	0.49
-5.034	0.49
-5.032	0.49
-5.031	0.49
-5.030	0.49
-5.028	0.49
-5.027	0.49
-5.025	0.49
-5.023	0.49
-5.022	0.49
-5.021	0.49
-5.019	0.49
-5.017	0.49
-5.016	0.50
-5.015	0.50
-5.013	0.50
-5.011	0.50
-5.010	0.50
-5.009	0.50
-5.007	0.50
-5.005	0.50
-5.004	0.50
-5.003	0.50
-5.001	0.50
-4.999	0.50
-4.998	0.50
-4.997	0.50
-4.995	0.50
-4.994	0.50
-4.992	0.51
-4.990	0.50
-4.989	0.51
-4.988	0.51
-4.986	0.50
-4.984	0.51
-4.983	0.51
-4.982	0.51
-4.980	0.51
-4.978	0.51
-4.977	0.51
-4.976	0.51
-4.974	0.51
-4.972	0.51
-4.971	0.51
-4.970	0.51
-4.968	0.51
-4.966	0.51
-4.965	0.51
-4.964	0.51
-4.962	0.51
-4.960	0.51
-4.959	0.51
-4.957	0.51
-4.956	0.52
-4.955	0.52
-4.953	0.52
-4.951	0.52
-4.950	0.52
-4.949	0.52
-4.947	0.52
-4.945	0.52
-4.944	0.52
-4.943	0.52
-4.941	0.52
-4.939	0.52
-4.938	0.52
-4.937	0.52
-4.935	0.52
-4.933	0.52
-4.932	0.52
-4.931	0.52
-4.929	0.52
-4.927	0.52
-4.926	0.53
-4.924	0.53
-4.923	0.52
-4.922	0.53
-4.920	0.53
-4.918	0.53
-4.917	0.53
-4.916	0.53
-4.914	0.53
-4.912	0.53
-4.911	0.53
-4.910	0.53
-4.908	0.53
-4.906	0.53
-4.905	0.53
-4.904	0.53
-4.902	0.54
-4.900	0.54
-4.899	0.54
-4.898	0.54
-4.896	0.54
-4.894	0.54
-4.893	0.54
-4.891	0.54
-4.890	0.54
-4.889	0.54
-4.887	0.54
-4.885	0.54
-4.884	0.54
-4.883	0.54
-4.881	0.54
-4.879	0.54
-4.878	0.54
-4.877	0.54
-4.875	0.54
-4.873	0.55
-4.872	0.55
-4.871	0.55
-4.869	0.55
-4.867	0.55
-4.866	0.55
-4.865	0.55
-4.863	0.55
-4.861	0.55
-4.860	0.55
-4.859	0.55
-4.857	0.55
-4.856	0.55
-4.854	0.55
-4.852	0.55
-4.851	0.55
-4.850	0.55
-4.848	0.55
-4.846	0.55
-4.845	0.55
-4.844	0.55
-4.842	0.55
-4.840	0.55
-4.839	0.55
-4.838	0.55
-4.836	0.56
-4.834	0.56
-4.833	0.56
-4.832	0.56
-4.830	0.56
-4.828	0.56
-4.827	0.56
-4.826	0.56
-4.824	0.56
-4.823	0.56
-4.821	0.56
-4.819	0.56
-4.818	0.56
-4.817	0.56
-4.815	0.56
-4.813	0.56
-4.812	0.56
-4.811	0.57
-4.809	0.56
-4.807	0.56
-4.806	0.56
-4.805	0.56
-4.803	0.56
-4.801	0.56
-4.800	0.57
-4.799	0.57
-4.797	0.57
-4.795	0.57
-4.794	0.57
-4.793	0.57
-4.791	0.57
-4.790	0.57
-4.788	0.57
-4.786	0.57
-4.785	0.57
-4.784	0.57
-4.782	0.57
-4.780	0.57
-4.779	0.57
-4.778	0.57
-4.776	0.57
-4.774	0.57
-4.773	0.57
-4.772	0.57
-4.770	0.57
-4.768	0.57
-4.767	0.57
-4.766	0.57
-4.764	0.57
-4.762	0.58
-4.761	0.57
-4.760	0.57
-4.758	0.58
-4.756	0.58
-4.755	0.58
-4.753	0.58
-4.752	0.58
-4.751	0.58
-4.749	0.58
-4.747	0.58
-4.746	0.58
-4.745	0.58
-4.743	0.58
-4.741	0.58
-4.740	0.58
-4.739	0.58
-4.737	0.58
-4.735	0.58
-4.734	0.58
-4.733	0.58
-4.731	0.58
-4.729	0.58
-4.728	0.58
-4.727	0.58
-4.725	0.58
-4.723	0.58
-4.722	0.58
-4.720	0.58
-4.719	0.58
-4.718	0.58
-4.716	0.58
-4.714	0.58
-4.713	0.58
-4.712	0.58
-4.710	0.58
-4.708	0.58
-4.707	0.58
-4.706	0.58
-4.704	0.58
-4.702	0.58
-4.701	0.58
-4.700	0.58
-4.698	0.58
-4.696	0.58
-4.695	0.58
-4.694	0.58
-4.692	0.58
-4.690	0.58
-4.689	0.58
-4.688	0.58
-4.686	0.58
-4.685	0.58
-4.683	0.58
-4.681	0.58
-4.680	0.58
-4.679	0.58
-4.677	0.59
-4.675	0.58
-4.674	0.59
-4.673	0.59
-4.671	0.58
-4.669	0.59
-4.668	0.59
-4.667	0.58
-4.665	0.59
-4.663	0.59
-4.662	0.59
-4.661	0.59
-4.659	0.59
-4.657	0.59
-4.656	0.59
-4.655	0.59
-4.653	0.59
-4.652	0.59
-4.650	0.59
-4.648	0.59
-4.647	0.59
-4.646	0.59
-4.644	0.59
-4.642	0.59
-4.641	0.59
-4.640	0.60
-4.638	0.60
-4.636	0.60
-4.635	0.60
-4.634	0.60
-4.632	0.60
-4.630	0.60
-4.629	0.60
-4.628	0.60
-4.626	0.60
-4.624	0.60
-4.623	0.60
-4.622	0.60
-4.620	0.60
-4.619	0.60
-4.617	0.60
-4.615	0.60
-4.614	0.60
-4.613	0.60
-4.611	0.60
-4.609	0.60
-4.608	0.60
-4.607	0.60
-4.605	0.60
-4.603	0.60
-4.602	0.61
-4.601	0.61
-4.599	0.60
-4.597	0.61
-4.596	0.61
-4.595	0.61
-4.593	0.61
-4.591	0.61
-4.590	0.61
-4.589	0.61
-4.587	0.61
-4.585	0.61
-4.584	0.61
-4.582	0.61
-4.581	0.61
-4.580	0.61
-4.578	0.61
-4.576	0.61
-4.575	0.61
-4.574	0.61
-4.572	0.61
-4.570	0.61
-4.569	0.61
-4.568	0.61
-4.566	0.61
-4.564	0.61
-4.563	0.61
-4.562	0.61
-4.560	0.61
-4.558	0.61
-4.557	0.62
-4.556	0.62
-4.554	0.62
-4.552	0.62
-4.551	0.61
-4.549	0.62
-4.548	0.61
-4.547	0.62
-4.545	0.62
-4.543	0.62
-4.542	0.62
-4.541	0.62
-4.539	0.62
-4.537	0.62
-4.536	0.62
-4.535	0.62
-4.533	0.62
-4.531	0.62
-4.530	0.62
-4.529	0.62
-4.527	0.62
-4.525	0.62
-4.524	0.62
-4.523	0.62
-4.521	0.62
-4.519	0.62
-4.518	0.62
-4.516	0.62
-4.515	0.62
-4.514	0.62
-4.512	0.62
-4.510	0.62
-4.509	0.62
-4.508	0.62
-4.506	0.62
-4.504	0.62
-4.503	0.62
-4.502	0.62
-4.500	0.62
-4.498	0.63
-4.497	0.63
-4.496	0.63
-4.494	0.62
-4.492	0.62
-4.491	0.62
-4.490	0.62
-4.488	0.62
-4.486	0.63
-4.485	0.63
-4.484	0.62
-4.482	0.62
-4.481	0.62
-4.479	0.63
-4.477	0.63
-4.476	0.63
-4.475	0.63
-4.473	0.62
-4.471	0.62
-4.470	0.62
-4.469	0.62
-4.467	0.62
-4.465	0.62
-4.464	0.62
-4.463	0.62
-4.461	0.62
-4.459	0.62
-4.458	0.62
-4.457	0.62
-4.455	0.62
-4.453	0.62
-4.452	0.62
-4.451	0.62
-4.449	0.62
-4.448	0.62
-4.446	0.62
-4.444	0.62
-4.443	0.62
-4.442	0.62
-4.440	0.62
-4.438	0.62
-4.437	0.62
-4.436	0.62
-4.434	0.62
-4.432	0.62
-4.431	0.62
-4.430	0.62
-4.428	0.62
-4.426	0.62
-4.425	0.62
-4.424	0.62
-4.422	0.62
-4.420	0.62
-4.419	0.62
-4.418	0.62
-4.416	0.62
-4.415	0.61
-4.413	0.61
-4.411	0.61
-4.410	0.61
-4.409	0.61
-4.407	0.61
-4.405	0.61
-4.404	0.61
-4.403	0.61
-4.401	0.61
-4.399	0.61
-4.398	0.62
-4.397	0.61
-4.395	0.61
-4.393	0.61
-4.392	0.61
-4.391	0.61
-4.389	0.61
-4.387	0.61
-4.386	0.61
-4.385	0.61
-4.383	0.61
-4.381	0.62
-4.380	0.61
-4.378	0.61
-4.377	0.61
-4.376	0.61
-4.374	0.61
-4.372	0.61
-4.371	0.61
-4.370	0.61
-4.368	0.61
-4.366	0.61
-4.365	0.61
-4.364	0.61
-4.362	0.61
-4.360	0.61
-4.359	0.61
-4.358	0.61
-4.356	0.61
-4.354	0.61
-4.353	0.61
-4.352	0.61
-4.350	0.61
-4.348	0.61
-4.347	0.61
-4.345	0.62
-4.344	0.61
-4.343	0.62
-4.341	0.62
-4.339	0.62
-4.338	0.62
-4.337	0.62
-4.335	0.62
-4.333	0.62
-4.332	0.62
-4.331	0.62
-4.329	0.62
-4.327	0.62
-4.326	0.62
-4.325	0.62
-4.323	0.62
-4.321	0.62
-4.320	0.62
-4.319	0.62
-4.317	0.62
-4.315	0.62
-4.314	0.62
-4.313	0.62
-4.311	0.62
-4.310	0.62
-4.308	0.62
-4.306	0.62
-4.305	0.62
-4.304	0.62
-4.302	0.62
-4.300	0.62
-4.299	0.62
-4.298	0.62
-4.296	0.62
-4.294	0.62
-4.293	0.62
-4.292	0.62
-4.290	0.62
-4.288	0.62
-4.287	0.62
-4.286	0.62
-4.284	0.62
-4.282	0.62
-4.281	0.62
-4.280	0.63
-4.278	0.62
-4.277	0.62
-4.275	0.62
-4.273	0.62
-4.272	0.62
-4.271	0.62
-4.269	0.63
-4.267	0.63
-4.266	0.63
-4.265	0.63
-4.263	0.63
-4.261	0.63
-4.260	0.63
-4.259	0.63
-4.257	0.63
-4.255	0.63
-4.254	0.62
-4.253	0.62
-4.251	0.62
-4.249	0.62
-4.248	0.63
-4.247	0.63
-4.245	0.62
-4.244	0.62
-4.242	0.62
-4.240	0.62
-4.239	0.62
-4.238	0.62
-4.236	0.62
-4.234	0.62
-4.233	0.62
-4.232	0.62
-4.230	0.62
-4.228	0.62
-4.227	0.62
-4.226	0.62
-4.224	0.62
-4.222	0.62
-4.221	0.62
-4.220	0.62
-4.218	0.62
-4.216	0.62
-4.215	0.62
-4.214	0.62
-4.212	0.62
-4.210	0.62
-4.209	0.62
-4.207	0.62
-4.206	0.62
-4.205	0.62
-4.203	0.61
-4.201	0.62
-4.200	0.61
-4.199	0.61
-4.197	0.61
-4.195	0.61
-4.194	0.61
-4.193	0.61
-4.191	0.61
-4.189	0.61
-4.188	0.61
-4.187	0.61
-4.185	0.61
-4.183	0.61
-4.182	0.61
-4.181	0.61
-4.179	0.61
-4.177	0.61
-4.176	0.61
-4.174	0.61
-4.173	0.61
-4.172	0.61
-4.170	0.61
-4.168	0.61
-4.167	0.61
-4.166	0.61
-4.164	0.61
-4.162	0.61
-4.161	0.61
-4.160	0.61
-4.158	0.61
-4.156	0.61
-4.155	0.61
-4.154	0.61
-4.152	0.61
-4.150	0.61
-4.149	0.61
-4.148	0.61
-4.146	0.61
-4.144	0.61
-4.143	0.61
-4.141	0.61
-4.140	0.61
-4.139	0.61
-4.137	0.61
-4.135	0.61
-4.134	0.61
-4.133	0.61
-4.131	0.61
-4.129	0.61
-4.128	0.61
-4.127	0.61
-4.125	0.61
-4.123	0.61
-4.122	0.61
-4.121	0.61
-4.119	0.61
-4.117	0.61
-4.116	0.61
-4.115	0.61
-4.113	0.61
-4.111	0.61
-4.110	0.61
-4.109	0.61
-4.107	0.61
-4.106	0.61
-4.104	0.61
-4.102	0.61
-4.101	0.61
-4.100	0.61
-4.098	0.61
-4.096	0.61
-4.095	0.61
-4.094	0.61
-4.092	0.61
-4.090	0.61
-4.089	0.61
-4.088	0.61
-4.086	0.61
-4.084	0.61
-4.083	0.61
-4.082	0.61
-4.080	0.61
-4.078	0.61
-4.077	0.61
-4.076	0.61
-4.074	0.61
-4.073	0.61
-4.071	0.61
-4.069	0.61
-4.068	0.61
-4.067	0.61
-4.065	0.61
-4.063	0.61
-4.062	0.61
-4.061	0.61
-4.059	0.61
-4.057	0.61
-4.056	0.61
-4.055	0.61
-4.053	0.61
-4.051	0.61
-4.050	0.61
-4.049	0.61
-4.047	0.62
-4.045	0.62
-4.044	0.62
-4.043	0.62
-4.041	0.62
-4.040	0.62
-4.038	0.62
-4.036	0.62
-4.035	0.62
-4.034	0.62
-4.032	0.62
-4.030	0.62
-4.029	0.62
-4.028	0.62
-4.026	0.62
-4.024	0.62
-4.023	0.63
-4.022	0.63
-4.020	0.63
-4.018	0.63
-4.017	0.63
-4.016	0.63
-4.014	0.63
-4.012	0.63
-4.011	0.63
-4.010	0.63
-4.008	0.63
-4.006	0.63
-4.005	0.63
-4.003	0.63
-4.002	0.63
-4.001	0.63
-3.999	0.63
-3.997	0.63
-3.996	0.63
-3.994	0.63
-3.993	0.63
-3.991	0.63
-3.990	0.63
-3.989	0.64
-3.987	0.64
-3.986	0.64
-3.984	0.64
-3.983	0.64
-3.981	0.64
-3.980	0.64
-3.978	0.64
-3.977	0.64
-3.975	0.64
-3.974	0.64
-3.972	0.64
-3.970	0.64
-3.969	0.64
-3.967	0.64
-3.966	0.64
-3.964	0.65
-3.963	0.65
-3.961	0.65
-3.960	0.65
-3.958	0.65
-3.957	0.65
-3.955	0.65
-3.954	0.65
-3.953	0.65
-3.951	0.65
-3.950	0.65
-3.948	0.65
-3.947	0.65
-3.945	0.66
-3.944	0.66
-3.942	0.66
-3.941	0.66
-3.939	0.66
-3.938	0.66
-3.936	0.66
-3.934	0.66
-3.933	0.66
-3.931	0.66
-3.930	0.66
-3.928	0.67
-3.927	0.67
-3.925	0.67
-3.924	0.67
-3.922	0.67
-3.921	0.67
-3.920	0.67
-3.918	0.67
-3.917	0.67
-3.915	0.67
-3.914	0.67
-3.912	0.67
-3.911	0.67
-3.909	0.67
-3.908	0.67
-3.906	0.68
-3.905	0.68
-3.903	0.68
-3.901	0.68
-3.900	0.68
-3.898	0.68
-3.897	0.68
-3.895	0.68
-3.894	0.68
-3.892	0.68
-3.891	0.68
-3.889	0.68
-3.888	0.68
-3.886	0.68
-3.885	0.68
-3.884	0.69
-3.882	0.69
-3.881	0.69
-3.879	0.69
-3.878	0.69
-3.876	0.69
-3.875	0.69
-3.873	0.69
-3.872	0.69
-3.870	0.69
-3.868	0.69
-3.867	0.69
-3.865	0.70
-3.864	0.70
-3.862	0.70
-3.861	0.70
-3.859	0.70
-3.858	0.70
-3.856	0.70
-3.855	0.70
-3.853	0.70
-3.852	0.70
-3.851	0.71
-3.849	0.71
-3.848	0.71
-3.846	0.71
-3.845	0.71
-3.843	0.71
-3.842	0.71
-3.840	0.71
-3.839	0.71
-3.837	0.71
-3.836	0.72
-3.834	0.71
-3.832	0.72
-3.831	0.72
-3.829	0.72
-3.828	0.72
-3.826	0.72
-3.825	0.72
-3.823	0.73
-3.822	0.72
-3.820	0.72
-3.819	0.72
-3.818	0.73
-3.816	0.73
-3.815	0.73
-3.813	0.73
-3.812	0.73
-3.810	0.73
-3.809	0.73
-3.807	0.73
-3.806	0.73
-3.804	0.73
-3.803	0.74
-3.801	0.74
-3.799	0.73
-3.798	0.74
-3.796	0.74
-3.795	0.74
-3.793	0.74
-3.792	0.74
-3.790	0.74
-3.789	0.74
-3.787	0.74
-3.786	0.75
-3.784	0.75
-3.783	0.75
-3.782	0.75
-3.780	0.75
-3.779	0.75
-3.777	0.75
-3.776	0.75
-3.774	0.75
-3.773	0.75
-3.771	0.75
-3.770	0.75
-3.768	0.76
-3.766	0.76
-3.765	0.76
-3.763	0.76
-3.762	0.76
-3.760	0.76
-3.759	0.76
-3.757	0.76
-3.756	0.76
-3.754	0.76
-3.753	0.76
-3.751	0.77
-3.750	0.76
-3.749	0.77
-3.747	0.77
-3.746	0.77
-3.744	0.77
-3.743	0.77
-3.741	0.77
-3.740	0.77
-3.738	0.77
-3.737	0.77
-3.735	0.77
-3.734	0.77
-3.732	0.77
-3.730	0.78
-3.729	0.78
-3.727	0.78
-3.726	0.78
-3.724	0.78
-3.723	0.78
-3.721	0.78
-3.720	0.78
-3.718	0.78
-3.717	0.78
-3.716	0.78
-3.714	0.78
-3.713	0.78
-3.711	0.78
-3.710	0.79
-3.708	0.79
-3.707	0.79
-3.705	0.79
-3.704	0.79
-3.702	0.79
-3.701	0.79
-3.699	0.79
-3.697	0.79
-3.696	0.79
-3.694	0.79
-3.693	0.79
-3.691	0.79
-3.690	0.79
-3.688	0.79
-3.687	0.79
-3.685	0.79
-3.684	0.79
-3.682	0.79
-3.681	0.79
-3.680	0.79
-3.678	0.79
-3.677	0.80
-3.675	0.80
-3.674	0.80
-3.672	0.80
-3.671	0.80
-3.669	0.80
-3.668	0.80
-3.666	0.80
-3.664	0.80
-3.663	0.80
-3.661	0.80
-3.660	0.80
-3.658	0.80
-3.657	0.80
-3.655	0.80
-3.654	0.80
-3.652	0.80
-3.651	0.80
-3.649	0.80
-3.648	0.80
-3.647	0.80
-3.645	0.80
-3.644	0.80
-3.642	0.80
-3.641	0.80
-3.639	0.80
-3.638	0.80
-3.636	0.80
-3.635	0.80
-3.633	0.80
-3.632	0.80
-3.630	0.80
-3.628	0.80
-3.627	0.80
-3.625	0.80
-3.624	0.80
-3.622	0.80
-3.621	0.80
-3.619	0.80
-3.618	0.80
-3.616	0.80
-3.615	0.80
-3.614	0.80
-3.612	0.81
-3.611	0.81
-3.609	0.81
-3.608	0.81
-3.606	0.80
-3.605	0.81
-3.603	0.81
-3.602	0.80
-3.600	0.81
-3.599	0.81
-3.597	0.81
-3.595	0.81
-3.594	0.81
-3.592	0.81
-3.591	0.81
-3.589	0.81
-3.588	0.81
-3.586	0.81
-3.585	0.81
-3.583	0.81
-3.582	0.81
-3.580	0.81
-3.579	0.81
-3.578	0.81
-3.576	0.81
-3.575	0.81
-3.573	0.81
-3.572	0.81
-3.570	0.81
-3.569	0.81
-3.567	0.81
-3.566	0.81
-3.564	0.81
-3.563	0.81
-3.561	0.81
-3.559	0.81
-3.558	0.81
-3.556	0.81
-3.555	0.81
-3.553	0.81
-3.552	0.82
-3.550	0.81
-3.549	0.81
-3.547	0.81
-3.546	0.81
-3.545	0.81
-3.543	0.81
-3.542	0.81
-3.540	0.82
-3.539	0.82
-3.537	0.81
-3.536	0.82
-3.534	0.82
-3.533	0.82
-3.531	0.82
-3.530	0.82
-3.528	0.82
-3.526	0.82
-3.525	0.82
-3.523	0.82
-3.522	0.82
-3.520	0.82
-3.519	0.82
-3.517	0.82
-3.516	0.82
-3.514	0.82
-3.513	0.83
-3.511	0.83
-3.510	0.83
-3.509	0.83
-3.507	0.83
-3.506	0.83
-3.504	0.83
-3.503	0.83
-3.501	0.83
-3.500	0.83
-3.498	0.83
-3.497	0.83
-3.495	0.83
-3.493	0.83
-3.492	0.83
-3.490	0.83
-3.489	0.83
-3.487	0.83
-3.486	0.83
-3.484	0.83
-3.483	0.83
-3.481	0.83
-3.480	0.83
-3.478	0.83
-3.477	0.83
-3.476	0.83
-3.474	0.83
-3.473	0.83
-3.471	0.83
-3.470	0.83
-3.468	0.83
-3.467	0.83
-3.465	0.83
-3.464	0.83
-3.462	0.83
-3.461	0.83
-3.459	0.83
-3.457	0.83
-3.456	0.83
-3.454	0.83
-3.453	0.83
-3.451	0.83
-3.450	0.83
-3.448	0.83
-3.447	0.83
-3.445	0.83
-3.444	0.83
-3.443	0.83
-3.441	0.83
-3.440	0.83
-3.438	0.83
-3.437	0.83
-3.435	0.83
-3.434	0.84
-3.432	0.83
-3.431	0.83
-3.429	0.83
-3.428	0.83
-3.426	0.83
-3.424	0.83
-3.423	0.83
-3.421	0.84
-3.420	0.83
-3.418	0.84
-3.417	0.84
-3.415	0.84
-3.414	0.84
-3.412	0.84
-3.411	0.84
-3.409	0.84
-3.408	0.84
-3.407	0.84
-3.405	0.84
-3.404	0.84
-3.402	0.84
-3.401	0.84
-3.399	0.84
-3.398	0.84
-3.396	0.84
-3.395	0.84
-3.393	0.84
-3.391	0.84
-3.390	0.84
-3.388	0.84
-3.387	0.84
-3.385	0.84
-3.384	0.84
-3.382	0.84
-3.381	0.84
-3.379	0.84
-3.378	0.84
-3.376	0.84
-3.375	0.84
-3.374	0.85
-3.372	0.85
-3.371	0.85
-3.369	0.85
-3.368	0.84
-3.366	0.85
-3.365	0.85
-3.363	0.85
-3.362	0.85
-3.360	0.85
-3.359	0.85
-3.357	0.85
-3.355	0.85
-3.354	0.85
-3.352	0.85
-3.351	0.85
-3.349	0.85
-3.348	0.85
-3.346	0.85
-3.345	0.85
-3.343	0.85
-3.342	0.86
-3.341	0.86
-3.339	0.86
-3.338	0.86
-3.336	0.86
-3.335	0.86
-3.333	0.86
-3.332	0.86
-3.330	0.86
-3.329	0.86
-3.327	0.86
-3.326	0.86
-3.324	0.86
-3.322	0.86
-3.321	0.86
-3.319	0.87
-3.318	0.87
-3.316	0.87
-3.315	0.87
-3.313	0.87
-3.312	0.87
-3.310	0.87
-3.309	0.87
-3.307	0.87
-3.306	0.87
-3.305	0.87
-3.303	0.87
-3.302	0.87
-3.300	0.87
-3.299	0.87
-3.297	0.88
-3.296	0.88
-3.294	0.88
-3.293	0.88
-3.291	0.88
-3.289	0.88
-3.288	0.88
-3.286	0.88
-3.285	0.88
-3.283	0.88
-3.282	0.88
-3.280	0.88
-3.279	0.88
-3.277	0.88
-3.276	0.88
-3.274	0.88
-3.273	0.88
-3.272	0.89
-3.270	0.89
-3.269	0.89
-3.267	0.89
-3.266	0.89
-3.264	0.89
-3.263	0.89
-3.261	0.89
-3.260	0.89
-3.258	0.89
-3.257	0.89
-3.255	0.89
-3.253	0.89
-3.252	0.89
-3.250	0.89
-3.249	0.89
-3.247	0.89
-3.246	0.90
-3.244	0.90
-3.243	0.90
-3.241	0.90
-3.240	0.90
-3.239	0.90
-3.237	0.90
-3.236	0.90
-3.234	0.90
-3.233	0.90
-3.231	0.90
-3.230	0.90
-3.228	0.90
-3.227	0.90
-3.225	0.90
-3.224	0.91
-3.222	0.90
-3.220	0.90
-3.219	0.90
-3.217	0.90
-3.216	0.90
-3.214	0.91
-3.213	0.91
-3.211	0.91
-3.210	0.90
-3.208	0.91
-3.207	0.91
-3.205	0.91
-3.204	0.91
-3.203	0.91
-3.201	0.91
-3.200	0.91
-3.198	0.91
-3.197	0.91
-3.195	0.91
-3.194	0.91
-3.192	0.91
-3.191	0.91
-3.189	0.91
-3.188	0.91
-3.186	0.91
-3.184	0.92
-3.183	0.91
-3.181	0.92
-3.180	0.92
-3.178	0.92
-3.177	0.92
-3.175	0.92
-3.174	0.92
-3.172	0.92
-3.171	0.92
-3.170	0.92
-3.168	0.92
-3.167	0.92
-3.165	0.92
-3.164	0.92
-3.162	0.92
-3.161	0.92
-3.159	0.93
-3.158	0.93
-3.156	0.93
-3.155	0.93
-3.153	0.93
-3.151	0.93
-3.150	0.93
-3.148	0.93
-3.147	0.93
-3.145	0.93
-3.144	0.93
-3.142	0.93
-3.141	0.93
-3.139	0.94
-3.138	0.93
-3.136	0.93
-3.135	0.94
-3.134	0.93
-3.132	0.94
-3.131	0.94
-3.129	0.94
-3.128	0.94
-3.126	0.93
-3.125	0.94
-3.123	0.94
-3.122	0.94
-3.120	0.94
-3.118	0.94
-3.117	0.94
-3.115	0.94
-3.114	0.94
-3.112	0.94
-3.111	0.94
-3.109	0.94
-3.108	0.94
-3.106	0.94
-3.105	0.94
-3.103	0.94
-3.102	0.94
-3.101	0.95
-3.099	0.94
-3.098	0.95
-3.096	0.94
-3.095	0.94
-3.093	0.94
-3.092	0.94
-3.090	0.94
-3.089	0.94
-3.087	0.95
-3.086	0.95
-3.084	0.95
-3.082	0.95
-3.081	0.95
-3.079	0.95
-3.078	0.95
-3.076	0.95
-3.075	0.95
-3.073	0.95
-3.072	0.95
-3.070	0.95
-3.069	0.95
-3.068	0.95
-3.066	0.95
-3.065	0.95
-3.063	0.95
-3.062	0.95
-3.060	0.95
-3.059	0.95
-3.057	0.95
-3.056	0.95
-3.054	0.95
-3.053	0.95
-3.051	0.95
-3.049	0.95
-3.048	0.95
-3.046	0.95
-3.045	0.95
-3.043	0.95
-3.042	0.95
-3.040	0.95
-3.039	0.95
-3.037	0.96
-3.036	0.95
-3.034	0.95
-3.033	0.95
-3.032	0.95
-3.030	0.95
-3.029	0.95
-3.027	0.95
-3.026	0.95
-3.024	0.95
-3.023	0.95
-3.021	0.95
-3.020	0.96
-3.018	0.95
-3.016	0.95
-3.015	0.95
-3.013	0.95
-3.012	0.95
-3.010	0.95
-3.009	0.95
-3.007	0.96
-3.006	0.95
-3.004	0.96
-3.003	0.96
-3.001	0.96
-3.000	0.96
-2.999	0.96
-2.997	0.96
-2.996	0.96
-2.994	0.95
-2.993	0.95
-2.991	0.96
-2.990	0.96
-2.988	0.96
-2.987	0.96
-2.985	0.96
-2.984	0.96
-2.982	0.96
-2.980	0.96
-2.979	0.96
-2.977	0.96
-2.976	0.96
-2.974	0.96
-2.973	0.96
-2.971	0.96
-2.970	0.96
-2.968	0.96
-2.967	0.96
-2.966	0.96
-2.964	0.96
-2.963	0.96
-2.961	0.96
-2.960	0.96
-2.958	0.96
-2.957	0.96
-2.955	0.96
-2.954	0.96
-2.952	0.96
-2.951	0.96
-2.949	0.96
-2.947	0.96
-2.946	0.96
-2.944	0.96
-2.943	0.96
-2.941	0.96
-2.940	0.96
-2.938	0.96
-2.937	0.96
-2.935	0.96
-2.934	0.96
-2.932	0.96
-2.931	0.96
-2.930	0.96
-2.928	0.96
-2.927	0.96
-2.925	0.96
-2.924	0.96
-2.922	0.97
-2.921	0.97
-2.919	0.96
-2.918	0.97
-2.916	0.97
-2.914	0.97
-2.913	0.96
-2.911	0.96
-2.910	0.97
-2.908	0.97
-2.907	0.97
-2.905	0.97
-2.904	0.97
-2.902	0.97
-2.901	0.97
-2.899	0.97
-2.898	0.97
-2.897	0.97
-2.895	0.97
-2.894	0.97
-2.892	0.97
-2.891	0.97
-2.889	0.97
-2.888	0.97
-2.886	0.97
-2.885	0.97
-2.883	0.97
-2.882	0.98
-2.880	0.97
-2.878	0.97
-2.877	0.97
-2.875	0.98
-2.874	0.97
-2.872	0.98
-2.871	0.98
-2.869	0.98
-2.868	0.98
-2.866	0.98
-2.865	0.98
-2.864	0.98
-2.862	0.98
-2.861	0.98
-2.859	0.98
-2.858	0.98
-2.856	0.98
-2.855	0.98
-2.853	0.98
-2.852	0.99
-2.850	0.99
-2.849	0.99
-2.847	0.99
-2.845	0.99
-2.844	0.99
-2.842	0.99
-2.841	0.99
-2.839	0.99
-2.838	0.99
-2.836	0.99
-2.835	1.00
-2.833	1.00
-2.832	1.00
-2.830	1.00
-2.829	1.00
-2.828	1.00
-2.826	1.00
-2.825	1.00
-2.823	1.00
-2.822	1.00
-2.820	1.01
-2.819	1.01
-2.817	1.01
-2.816	1.01
-2.814	1.01
-2.813	1.01
-2.811	1.01
-2.809	1.01
-2.808	1.01
-2.806	1.01
-2.805	1.01
-2.803	1.02
-2.802	1.02
-2.800	1.02
-2.799	1.02
-2.797	1.02
-2.796	1.02
-2.795	1.02
-2.793	1.02
-2.792	1.02
-2.790	1.02
-2.789	1.02
-2.787	1.03
-2.786	1.03
-2.784	1.03
-2.783	1.03
-2.781	1.03
-2.780	1.03
-2.778	1.03
-2.776	1.03
-2.775	1.03
-2.773	1.03
-2.772	1.03
-2.770	1.03
-2.769	1.04
-2.767	1.04
-2.766	1.04
-2.764	1.04
-2.763	1.04
-2.761	1.04
-2.760	1.04
-2.759	1.04
-2.757	1.04
-2.756	1.04
-2.754	1.04
-2.753	1.04
-2.751	1.04
-2.750	1.04
-2.748	1.04
-2.747	1.04
-2.745	1.04
-2.743	1.04
-2.742	1.04
-2.740	1.04
-2.739	1.04
-2.737	1.04
-2.736	1.04
-2.734	1.04
-2.733	1.05
-2.731	1.05
-2.730	1.05
-2.728	1.05
-2.727	1.05
-2.726	1.05
-2.724	1.05
-2.723	1.05
-2.721	1.05
-2.720	1.05
-2.718	1.05
-2.717	1.05
-2.715	1.06
-2.714	1.05
-2.712	1.06
-2.711	1.06
-2.709	1.06
-2.707	1.06
-2.706	1.06
-2.704	1.06
-2.703	1.06
-2.701	1.06
-2.700	1.06
-2.698	1.06
-2.697	1.06
-2.695	1.06
-2.694	1.07
-2.693	1.07
-2.691	1.07
-2.690	1.07
-2.688	1.07
-2.687	1.07
-2.685	1.07
-2.684	1.07
-2.682	1.07
-2.681	1.07
-2.679	1.07
-2.678	1.07
-2.676	1.07
-2.674	1.08
-2.673	1.08
-2.671	1.08
-2.670	1.08
-2.668	1.08
-2.667	1.08
-2.665	1.08
-2.664	1.08
-2.662	1.08
-2.661	1.08
-2.659	1.08
-2.658	1.08
-2.657	1.08
-2.655	1.08
-2.654	1.08
-2.652	1.09
-2.651	1.09
-2.649	1.09
-2.648	1.09
-2.646	1.09
-2.645	1.09
-2.643	1.09
-2.641	1.09
-2.640	1.09
-2.638	1.09
-2.637	1.09
-2.635	1.09
-2.634	1.09
-2.632	1.09
-2.631	1.09
-2.629	1.10
-2.628	1.10
-2.626	1.10
-2.625	1.10
-2.624	1.10
-2.622	1.10
-2.621	1.10
-2.619	1.10
-2.618	1.10
-2.616	1.10
-2.615	1.10
-2.613	1.10
-2.612	1.10
-2.610	1.11
-2.609	1.11
-2.607	1.11
-2.605	1.11
-2.604	1.11
-2.602	1.11
-2.601	1.11
-2.599	1.11
-2.598	1.11
-2.596	1.11
-2.595	1.11
-2.593	1.12
-2.592	1.12
-2.591	1.12
-2.589	1.12
-2.588	1.12
-2.586	1.12
-2.585	1.12
-2.583	1.12
-2.582	1.12
-2.580	1.12
-2.579	1.12
-2.577	1.12
-2.576	1.12
-2.574	1.12
-2.572	1.12
-2.571	1.13
-2.569	1.13
-2.568	1.13
-2.566	1.13
-2.565	1.13
-2.563	1.13
-2.562	1.13
-2.560	1.13
-2.559	1.13
-2.557	1.13
-2.556	1.13
-2.555	1.13
-2.553	1.13
-2.552	1.13
-2.550	1.13
-2.549	1.13
-2.547	1.13
-2.546	1.13
-2.544	1.13
-2.543	1.13
-2.541	1.13
-2.539	1.13
-2.538	1.13
-2.536	1.13
-2.535	1.13
-2.533	1.13
-2.532	1.13
-2.530	1.13
-2.529	1.13
-2.527	1.14
-2.526	1.14
-2.524	1.13
-2.523	1.14
-2.522	1.13
-2.520	1.13
-2.519	1.13
-2.517	1.13
-2.516	1.13
-2.514	1.13
-2.513	1.13
-2.511	1.13
-2.510	1.13
-2.508	1.13
-2.507	1.13
-2.505	1.13
-2.503	1.13
-2.502	1.13
-2.500	1.13
-2.499	1.13
-2.497	1.13
-2.496	1.13
-2.494	1.13
-2.493	1.13
-2.491	1.14
-2.490	1.13
-2.489	1.14
-2.487	1.14
-2.486	1.14
-2.484	1.14
-2.483	1.14
-2.481	1.14
-2.480	1.14
-2.478	1.14
-2.477	1.14
-2.475	1.14
-2.474	1.14
-2.472	1.14
-2.470	1.14
-2.469	1.14
-2.467	1.14
-2.466	1.14
-2.464	1.14
-2.463	1.14
-2.461	1.14
-2.460	1.14
-2.458	1.14
-2.457	1.14
-2.455	1.14
-2.454	1.14
-2.453	1.14
-2.451	1.14
-2.450	1.15
-2.448	1.15
-2.447	1.15
-2.445	1.14
-2.444	1.14
-2.442	1.14
-2.441	1.14
-2.439	1.14
-2.438	1.14
-2.436	1.14
-2.434	1.15
-2.433	1.15
-2.431	1.15
-2.430	1.15
-2.428	1.15
-2.427	1.15
-2.425	1.15
-2.424	1.15
-2.422	1.15
-2.421	1.15
-2.420	1.15
-2.418	1.15
-2.417	1.15
-2.415	1.15
-2.414	1.15
-2.412	1.15
-2.411	1.16
-2.409	1.16
-2.408	1.16
-2.406	1.16
-2.405	1.16
-2.403	1.16
-2.401	1.16
-2.400	1.16
-2.398	1.16
-2.397	1.16
-2.395	1.16
-2.394	1.16
-2.392	1.17
-2.391	1.17
-2.389	1.17
-2.388	1.17
-2.386	1.17
-2.385	1.17
-2.384	1.17
-2.382	1.17
-2.381	1.17
-2.379	1.17
-2.378	1.17
-2.376	1.17
-2.375	1.17
-2.373	1.17
-2.372	1.17
-2.370	1.18
-2.368	1.18
-2.367	1.17
-2.365	1.18
-2.364	1.18
-2.362	1.18
-2.361	1.18
-2.359	1.18
-2.358	1.18
-2.356	1.18
-2.355	1.18
-2.353	1.18
-2.352	1.18
-2.351	1.18
-2.349	1.18
-2.348	1.18
-2.346	1.19
-2.345	1.19
-2.343	1.19
-2.342	1.19
-2.340	1.19
-2.339	1.19
-2.337	1.19
-2.336	1.19
-2.334	1.19
-2.332	1.19
-2.331	1.19
-2.329	1.20
-2.328	1.19
-2.326	1.20
-2.325	1.20
-2.323	1.20
-2.322	1.20
-2.320	1.20
-2.319	1.20
-2.318	1.20
-2.316	1.20
-2.315	1.20
-2.313	1.20
-2.312	1.21
-2.310	1.20
-2.309	1.21
-2.307	1.21
-2.306	1.21
-2.304	1.21
-2.303	1.21
-2.301	1.21
-2.299	1.21
-2.298	1.21
-2.296	1.21
-2.295	1.21
-2.293	1.21
-2.292	1.22
-2.290	1.22
-2.289	1.22
-2.287	1.22
-2.286	1.22
-2.284	1.22
-2.283	1.22
-2.282	1.22
-2.280	1.22
-2.279	1.22
-2.277	1.22
-2.276	1.22
-2.274	1.23
-2.273	1.23
-2.271	1.23
-2.270	1.23
-2.268	1.23
-2.266	1.23
-2.265	1.23
-2.263	1.23
-2.262	1.23
-2.260	1.23
-2.259	1.24
-2.257	1.24
-2.256	1.24
-2.254	1.24
-2.253	1.24
-2.251	1.24
-2.250	1.24
-2.249	1.24
-2.247	1.25
-2.246	1.25
-2.244	1.25
-2.243	1.25
-2.241	1.25
-2.240	1.25
-2.238	1.25
-2.237	1.25
-2.235	1.25
-2.234	1.25
-2.232	1.25
-2.230	1.26
-2.229	1.26
-2.227	1.26
-2.226	1.25
-2.224	1.26
-2.223	1.26
-2.221	1.26
-2.220	1.26
-2.218	1.26
-2.217	1.26
-2.216	1.26
-2.214	1.26
-2.213	1.26
-2.211	1.26
-2.210	1.27
-2.208	1.27
-2.207	1.27
-2.205	1.27
-2.204	1.27
-2.202	1.27
-2.201	1.27
-2.199	1.27
-2.197	1.27
-2.196	1.27
-2.194	1.27
-2.193	1.27
-2.191	1.27
-2.190	1.27
-2.188	1.28
-2.187	1.27
-2.185	1.27
-2.184	1.27
-2.182	1.27
-2.181	1.27
-2.180	1.28
-2.178	1.28
-2.177	1.28
-2.175	1.28
-2.174	1.28
-2.172	1.28
-2.171	1.28
-2.169	1.28
-2.168	1.28
-2.166	1.28
-2.164	1.28
-2.163	1.28
-2.161	1.28
-2.160	1.28
-2.158	1.28
-2.157	1.28
-2.155	1.28
-2.154	1.28
-2.152	1.28
-2.151	1.28
-2.149	1.28
-2.148	1.28
-2.147	1.28
-2.145	1.28
-2.144	1.28
-2.142	1.27
-2.141	1.28
-2.139	1.28
-2.138	1.28
-2.136	1.28
-2.135	1.28
-2.133	1.28
-2.132	1.28
-2.130	1.28
-2.128	1.28
-2.127	1.28
-2.125	1.28
-2.124	1.28
-2.122	1.28
-2.121	1.28
-2.119	1.28
-2.118	1.28
-2.116	1.28
-2.115	1.28
-2.114	1.28
-2.112	1.28
-2.111	1.28
-2.109	1.28
-2.108	1.28
-2.106	1.28
-2.105	1.28
-2.103	1.28
-2.102	1.28
-2.100	1.29
-2.099	1.29
-2.097	1.29
-2.095	1.29
-2.094	1.29
-2.092	1.29
-2.091	1.29
-2.089	1.29
-2.088	1.29
-2.086	1.29
-2.085	1.29
-2.083	1.29
-2.082	1.29
-2.080	1.29
-2.079	1.29
-2.078	1.30
-2.076	1.30
-2.075	1.30
-2.073	1.30
-2.072	1.30
-2.070	1.30
-2.069	1.30
-2.067	1.30
-2.066	1.30
-2.064	1.30
-2.063	1.30
-2.061	1.30
-2.059	1.30
-2.058	1.30
-2.056	1.30
-2.055	1.30
-2.053	1.30
-2.052	1.30
-2.050	1.30
-2.049	1.30
-2.047	1.30
-2.046	1.30
-2.045	1.30
-2.043	1.30
-2.042	1.31
-2.040	1.30
-2.039	1.31
-2.037	1.31
-2.036	1.31
-2.034	1.31
-2.033	1.31
-2.031	1.31
-2.030	1.31
-2.028	1.31
-2.026	1.31
-2.025	1.31
-2.023	1.31
-2.022	1.31
-2.020	1.31
-2.019	1.31
-2.017	1.31
-2.016	1.31
-2.014	1.31
-2.013	1.31
-2.011	1.31
-2.010	1.31
-2.009	1.31
-2.007	1.31
-2.006	1.31
-2.004	1.31
-2.003	1.31
-2.001	1.31
-2.000	1.32
-1.998	1.32
-1.997	1.32
-1.995	1.32
-1.993	1.32
-1.992	1.32
-1.990	1.32
-1.989	1.32
-1.987	1.32
-1.986	1.32
-1.985	1.32
-1.983	1.32
-1.982	1.32
-1.980	1.32
-1.979	1.32
-1.977	1.32
-1.975	1.33
-1.974	1.33
-1.972	1.33
-1.971	1.33
-1.969	1.33
-1.968	1.33
-1.967	1.33
-1.965	1.33
-1.964	1.33
-1.962	1.33
-1.961	1.33
-1.959	1.33
-1.957	1.33
-1.956	1.33
-1.954	1.33
-1.953	1.33
-1.952	1.33
-1.950	1.33
-1.949	1.34
-1.947	1.33
-1.946	1.34
-1.944	1.34
-1.942	1.34
-1.941	1.34
-1.939	1.34
-1.938	1.34
-1.936	1.34
-1.935	1.34
-1.934	1.34
-1.932	1.34
-1.931	1.34
-1.929	1.34
-1.928	1.34
-1.926	1.34
-1.924	1.35
-1.923	1.35
-1.921	1.35
-1.920	1.35
-1.918	1.35
-1.917	1.35
-1.916	1.36
-1.914	1.36
-1.913	1.36
-1.911	1.36
-1.910	1.36
-1.908	1.36
-1.906	1.36
-1.905	1.36
-1.903	1.36
-1.902	1.37
-1.901	1.37
-1.899	1.37
-1.898	1.37
-1.896	1.37
-1.895	1.37
-1.893	1.38
-1.891	1.38
-1.890	1.38
-1.888	1.38
-1.887	1.38
-1.885	1.38
-1.884	1.39
-1.883	1.39
-1.881	1.39
-1.880	1.39
-1.878	1.39
-1.877	1.40
-1.875	1.40
-1.873	1.40
-1.872	1.40
-1.870	1.40
-1.869	1.40
-1.867	1.40
-1.866	1.41
-1.865	1.41
-1.863	1.41
-1.862	1.41
-1.860	1.42
-1.859	1.42
-1.857	1.42
-1.855	1.42
-1.854	1.42
-1.852	1.42
-1.851	1.43
-1.849	1.43
-1.848	1.43
-1.847	1.43
-1.845	1.43
-1.844	1.44
-1.842	1.44
-1.840	1.44
-1.839	1.44
-1.837	1.45
-1.836	1.45
-1.834	1.45
-1.833	1.45
-1.832	1.45
-1.830	1.45
-1.829	1.45
-1.827	1.46
-1.826	1.46
-1.824	1.46
-1.822	1.46
-1.821	1.46
-1.819	1.46
-1.818	1.47
-1.816	1.47
-1.815	1.47
-1.814	1.47
-1.812	1.47
-1.811	1.48
-1.809	1.48
-1.808	1.48
-1.806	1.48
-1.804	1.48
-1.803	1.49
-1.801	1.49
-1.800	1.49
-1.798	1.50
-1.797	1.50
-1.796	1.50
-1.794	1.50
-1.793	1.50
-1.791	1.51
-1.789	1.51
-1.788	1.51
-1.786	1.51
-1.785	1.51
-1.783	1.52
-1.782	1.52
-1.781	1.52
-1.779	1.53
-1.778	1.53
-1.776	1.53
-1.775	1.53
-1.773	1.53
-1.771	1.54
-1.770	1.54
-1.768	1.54
-1.767	1.54
-1.765	1.54
-1.764	1.54
-1.763	1.55
-1.761	1.55
-1.760	1.55
-1.758	1.55
-1.757	1.55
-1.755	1.56
-1.753	1.56
-1.752	1.56
-1.750	1.56
-1.749	1.56
-1.747	1.56
-1.746	1.56
-1.745	1.56
-1.743	1.57
-1.742	1.57
-1.740	1.57
-1.738	1.57
-1.737	1.57
-1.735	1.57
-1.734	1.57
-1.732	1.57
-1.731	1.58
-1.730	1.58
-1.728	1.58
-1.727	1.58
-1.725	1.58
-1.724	1.58
-1.722	1.58
-1.720	1.59
-1.719	1.59
-1.717	1.59
-1.716	1.59
-1.714	1.59
-1.713	1.59
-1.712	1.59
-1.710	1.59
-1.709	1.59
-1.707	1.59
-1.706	1.59
-1.704	1.59
-1.702	1.60
-1.701	1.60
-1.699	1.59
-1.698	1.60
-1.696	1.60
-1.695	1.60
-1.694	1.60
-1.692	1.60
-1.691	1.60
-1.689	1.60
-1.688	1.60
-1.686	1.60
-1.684	1.60
-1.683	1.60
-1.681	1.60
-1.680	1.60
-1.679	1.60
-1.677	1.60
-1.676	1.60
-1.674	1.60
-1.673	1.60
-1.671	1.60
-1.669	1.60
-1.668	1.60
-1.666	1.60
-1.665	1.60
-1.663	1.60
-1.662	1.60
-1.661	1.60
-1.659	1.60
-1.658	1.60
-1.656	1.60
-1.655	1.60
-1.653	1.60
-1.651	1.60
-1.650	1.60
-1.648	1.60
-1.647	1.60
-1.645	1.60
-1.644	1.60
-1.643	1.60
-1.641	1.60
-1.640	1.60
-1.638	1.60
-1.637	1.60
-1.635	1.60
-1.633	1.60
-1.632	1.60
-1.630	1.60
-1.629	1.60
-1.628	1.60
-1.626	1.60
-1.625	1.61
-1.623	1.61
-1.622	1.61
-1.620	1.61
-1.618	1.61
-1.617	1.61
-1.615	1.61
-1.614	1.61
-1.612	1.61
-1.611	1.61
-1.610	1.61
-1.608	1.61
-1.607	1.61
-1.605	1.61
-1.604	1.61
-1.602	1.61
-1.600	1.61
-1.599	1.61
-1.597	1.61
-1.596	1.61
-1.594	1.61
-1.593	1.61
-1.592	1.61
-1.590	1.61
-1.589	1.61
-1.587	1.61
-1.586	1.61
-1.584	1.61
-1.582	1.61
-1.581	1.62
-1.579	1.62
-1.578	1.62
-1.577	1.61
-1.575	1.61
-1.574	1.61
-1.572	1.62
-1.571	1.62
-1.569	1.62
-1.567	1.62
-1.566	1.62
-1.564	1.62
-1.563	1.62
-1.561	1.62
-1.560	1.62
-1.559	1.62
-1.557	1.62
-1.556	1.62
-1.554	1.62
-1.553	1.62
-1.551	1.62
-1.549	1.62
-1.548	1.62
-1.546	1.62
-1.545	1.62
-1.543	1.62
-1.542	1.63
-1.541	1.63
-1.539	1.63
-1.538	1.63
-1.536	1.62
-1.535	1.63
-1.533	1.63
-1.531	1.63
-1.530	1.63
-1.528	1.63
-1.527	1.63
-1.526	1.63
-1.524	1.63
-1.523	1.63
-1.521	1.64
-1.520	1.64
-1.518	1.64
-1.516	1.64
-1.515	1.64
-1.513	1.64
-1.512	1.64
-1.510	1.64
-1.509	1.64
-1.508	1.65
-1.506	1.65
-1.505	1.65
-1.503	1.65
-1.502	1.65
-1.500	1.65
-1.498	1.65
-1.497	1.66
-1.495	1.66
-1.494	1.66
-1.492	1.66
-1.491	1.66
-1.490	1.66
-1.488	1.66
-1.487	1.67
-1.485	1.66
-1.484	1.67
-1.482	1.67
-1.480	1.67
-1.479	1.67
-1.477	1.67
-1.476	1.67
-1.474	1.67
-1.473	1.67
-1.472	1.67
-1.470	1.67
-1.469	1.67
-1.467	1.67
-1.465	1.67
-1.464	1.67
-1.462	1.68
-1.461	1.68
-1.459	1.68
-1.458	1.68
-1.457	1.68
-1.455	1.68
-1.454	1.68
-1.452	1.68
-1.451	1.68
-1.449	1.68
-1.447	1.69
-1.446	1.69
-1.444	1.69
-1.443	1.69
-1.441	1.69
-1.440	1.69
-1.439	1.69
-1.437	1.70
-1.436	1.70
-1.434	1.70
-1.433	1.70
-1.431	1.70
-1.429	1.70
-1.428	1.70
-1.426	1.71
-1.425	1.71
-1.423	1.71
-1.422	1.71
-1.421	1.71
-1.419	1.71
-1.418	1.72
-1.416	1.72
-1.414	1.72
-1.413	1.72
-1.411	1.72
-1.410	1.72
-1.408	1.72
-1.407	1.72
-1.406	1.73
-1.404	1.73
-1.403	1.73
-1.401	1.73
-1.400	1.73
-1.398	1.73
-1.396	1.73
-1.395	1.73
-1.393	1.73
-1.392	1.73
-1.390	1.74
-1.389	1.74
-1.388	1.74
-1.386	1.74
-1.385	1.74
-1.383	1.74
-1.382	1.74
-1.380	1.75
-1.378	1.75
-1.377	1.75
-1.375	1.75
-1.374	1.75
-1.372	1.75
-1.371	1.75
-1.370	1.75
-1.368	1.75
-1.367	1.76
-1.365	1.76
-1.363	1.76
-1.362	1.76
-1.360	1.76
-1.359	1.76
-1.357	1.76
-1.356	1.76
-1.355	1.76
-1.353	1.76
-1.352	1.76
-1.350	1.76
-1.349	1.76
-1.347	1.77
-1.345	1.77
-1.344	1.77
-1.342	1.77
-1.341	1.77
-1.339	1.77
-1.338	1.77
-1.337	1.77
-1.335	1.77
-1.334	1.77
-1.332	1.77
-1.331	1.78
-1.329	1.78
-1.327	1.78
-1.326	1.78
-1.324	1.78
-1.323	1.78
-1.321	1.78
-1.320	1.78
-1.319	1.78
-1.317	1.78
-1.316	1.79
-1.314	1.79
-1.313	1.79
-1.311	1.79
-1.309	1.79
-1.308	1.79
-1.306	1.80
-1.305	1.80
-1.304	1.80
-1.302	1.80
-1.301	1.80
-1.299	1.80
-1.298	1.80
-1.296	1.80
-1.294	1.81
-1.293	1.81
-1.291	1.81
-1.290	1.81
-1.288	1.81
-1.287	1.81
-1.286	1.82
-1.284	1.82
-1.283	1.82
-1.281	1.82
-1.280	1.82
-1.278	1.82
-1.276	1.82
-1.275	1.82
-1.273	1.83
-1.272	1.83
-1.270	1.83
-1.269	1.83
-1.268	1.83
-1.266	1.83
-1.265	1.83
-1.263	1.83
-1.262	1.83
-1.260	1.83
-1.258	1.84
-1.257	1.84
-1.255	1.84
-1.254	1.84
-1.253	1.84
-1.251	1.84
-1.250	1.84
-1.248	1.84
-1.247	1.85
-1.245	1.85
-1.243	1.85
-1.242	1.85
-1.240	1.85
-1.239	1.85
-1.237	1.85
-1.236	1.85
-1.235	1.86
-1.233	1.86
-1.232	1.86
-1.230	1.86
-1.229	1.86
-1.227	1.86
-1.225	1.87
-1.224	1.87
-1.222	1.87
-1.221	1.87
-1.219	1.87
-1.218	1.87
-1.217	1.88
-1.215	1.88
-1.214	1.88
-1.212	1.88
-1.211	1.88
-1.209	1.88
-1.207	1.88
-1.206	1.88
-1.204	1.89
-1.203	1.89
-1.202	1.89
-1.200	1.89
-1.199	1.89
-1.197	1.90
-1.196	1.90
-1.194	1.90
-1.192	1.90
-1.191	1.90
-1.189	1.91
-1.188	1.91
-1.186	1.91
-1.185	1.91
-1.184	1.92
-1.182	1.92
-1.181	1.92
-1.179	1.92
-1.178	1.93
-1.176	1.93
-1.174	1.93
-1.173	1.93
-1.171	1.94
-1.170	1.94
-1.168	1.94
-1.167	1.95
-1.166	1.95
-1.164	1.95
-1.163	1.96
-1.161	1.96
-1.160	1.96
-1.158	1.96
-1.156	1.97
-1.155	1.97
-1.153	1.97
-1.152	1.97
-1.151	1.98
-1.149	1.98
-1.148	1.98
-1.146	1.99
-1.145	1.99
-1.143	1.99
-1.141	1.99
-1.140	2.00
-1.138	2.00
-1.137	2.00
-1.135	2.00
-1.134	2.00
-1.133	2.01
-1.131	2.01
-1.130	2.01
-1.128	2.02
-1.127	2.02
-1.125	2.02
-1.123	2.02
-1.122	2.02
-1.120	2.03
-1.119	2.03
-1.117	2.03
-1.116	2.03
-1.115	2.03
-1.113	2.03
-1.112	2.04
-1.110	2.04
-1.109	2.04
-1.107	2.04
-1.105	2.04
-1.104	2.05
-1.102	2.05
-1.101	2.05
-1.099	2.05
-1.098	2.05
-1.097	2.05
-1.095	2.05
-1.094	2.06
-1.092	2.06
-1.090	2.06
-1.089	2.06
-1.087	2.07
-1.086	2.07
-1.084	2.07
-1.083	2.07
-1.082	2.07
-1.080	2.07
-1.079	2.07
-1.077	2.08
-1.076	2.08
-1.074	2.08
-1.072	2.08
-1.071	2.08
-1.069	2.08
-1.068	2.08
-1.066	2.08
-1.065	2.08
-1.064	2.09
-1.062	2.09
-1.061	2.09
-1.059	2.09
-1.058	2.09
-1.056	2.09
-1.054	2.10
-1.053	2.10
-1.051	2.10
-1.050	2.10
-1.048	2.10
-1.047	2.11
-1.046	2.11
-1.044	2.11
-1.043	2.11
-1.041	2.11
-1.039	2.11
-1.038	2.11
-1.036	2.12
-1.035	2.12
-1.033	2.12
-1.032	2.12
-1.031	2.12
-1.029	2.12
-1.028	2.13
-1.026	2.13
-1.025	2.13
-1.023	2.13
-1.021	2.13
-1.020	2.13
-1.018	2.13
-1.017	2.13
-1.015	2.13
-1.014	2.14
-1.013	2.14
-1.011	2.14
-1.010	2.14
-1.008	2.14
-1.007	2.14
-1.005	2.14
-1.003	2.14
-1.002	2.14
-1.000	2.14
-0.999	2.14
-0.998	2.14
-0.996	2.15
-0.994	2.15
-0.993	2.15
-0.992	2.15
-0.990	2.15
-0.988	2.15
-0.987	2.15
-0.985	2.15
-0.984	2.15
-0.983	2.15
-0.981	2.15
-0.979	2.15
-0.978	2.15
-0.976	2.15
-0.975	2.15
-0.974	2.15
-0.972	2.15
-0.970	2.15
-0.969	2.15
-0.967	2.15
-0.966	2.16
-0.965	2.16
-0.963	2.15
-0.961	2.16
-0.960	2.15
-0.959	2.15
-0.957	2.16
-0.956	2.16
-0.954	2.16
-0.952	2.16
-0.951	2.16
-0.950	2.16
-0.948	2.16
-0.947	2.16
-0.945	2.16
-0.943	2.16
-0.942	2.16
-0.941	2.16
-0.939	2.16
-0.938	2.16
-0.936	2.16
-0.934	2.16
-0.933	2.16
-0.932	2.16
-0.930	2.16
-0.928	2.16
-0.927	2.16
-0.925	2.16
-0.924	2.16
-0.923	2.16
-0.921	2.16
-0.919	2.17
-0.918	2.16
-0.916	2.17
-0.915	2.17
-0.914	2.17
-0.912	2.17
-0.910	2.17
-0.909	2.17
-0.908	2.17
-0.906	2.17
-0.905	2.17
-0.903	2.17
-0.901	2.17
-0.900	2.17
-0.899	2.18
-0.897	2.18
-0.896	2.18
-0.894	2.18
-0.892	2.18
-0.891	2.18
-0.890	2.18
-0.888	2.18
-0.887	2.19
-0.885	2.19
-0.883	2.19
-0.882	2.19
-0.881	2.19
-0.879	2.19
-0.877	2.19
-0.876	2.19
-0.874	2.19
-0.873	2.20
-0.872	2.20
-0.870	2.20
-0.868	2.20
-0.867	2.20
-0.865	2.20
-0.864	2.20
-0.863	2.20
-0.861	2.20
-0.859	2.21
-0.858	2.21
-0.857	2.21
-0.855	2.21
-0.854	2.21
-0.852	2.21
-0.850	2.21
-0.849	2.22
-0.848	2.22
-0.846	2.22
-0.845	2.22
-0.843	2.22
-0.841	2.22
-0.840	2.22
-0.839	2.22
-0.837	2.22
-0.836	2.22
-0.834	2.23
-0.832	2.23
-0.831	2.23
-0.830	2.23
-0.828	2.23
-0.826	2.23
-0.825	2.23
-0.823	2.23
-0.822	2.23
-0.821	2.24
-0.819	2.24
-0.817	2.24
-0.816	2.24
-0.814	2.24
-0.813	2.24
-0.812	2.24
-0.810	2.24
-0.808	2.25
-0.807	2.25
-0.805	2.25
-0.804	2.25
-0.803	2.25
-0.801	2.25
-0.799	2.25
-0.798	2.25
-0.797	2.25
-0.795	2.25
-0.794	2.26
-0.792	2.26
-0.790	2.26
-0.789	2.26
-0.788	2.26
-0.786	2.26
-0.785	2.26
-0.783	2.26
-0.781	2.26
-0.780	2.26
-0.779	2.26
-0.777	2.26
-0.775	2.26
-0.774	2.26
-0.772	2.26
-0.771	2.26
-0.770	2.26
-0.768	2.26
-0.766	2.26
-0.765	2.26
-0.763	2.26
-0.762	2.26
-0.761	2.26
-0.759	2.26
-0.757	2.27
-0.756	2.26
-0.754	2.26
-0.753	2.27
-0.752	2.27
-0.750	2.27
-0.748	2.27
-0.747	2.26
-0.746	2.27
-0.744	2.26
-0.743	2.27
-0.741	2.27
-0.739	2.27
-0.738	2.27
-0.737	2.27
-0.735	2.27
-0.734	2.27
-0.732	2.27
-0.730	2.27
-0.729	2.27
-0.728	2.27
-0.726	2.27
-0.725	2.27
-0.723	2.27
-0.721	2.27
-0.720	2.27
-0.719	2.27
-0.717	2.27
-0.715	2.28
-0.714	2.28
-0.712	2.28
-0.711	2.28
-0.710	2.28
-0.708	2.28
-0.706	2.28
-0.705	2.28
-0.703	2.28
-0.702	2.28
-0.701	2.28
-0.699	2.28
-0.697	2.28
-0.696	2.28
-0.695	2.28
-0.693	2.28
-0.692	2.28
-0.690	2.28
-0.688	2.28
-0.687	2.28
-0.686	2.28
-0.684	2.28
-0.683	2.28
-0.681	2.28
-0.679	2.28
-0.678	2.28
-0.677	2.28
-0.675	2.28
-0.674	2.28
-0.672	2.28
-0.670	2.28
-0.669	2.28
-0.668	2.28
-0.666	2.28
-0.664	2.28
-0.663	2.28
-0.661	2.28
-0.660	2.28
-0.659	2.28
-0.657	2.28
-0.655	2.28
-0.654	2.28
-0.652	2.28
-0.651	2.28
-0.650	2.28
-0.648	2.28
-0.646	2.28
-0.645	2.28
-0.643	2.28
-0.642	2.28
-0.641	2.28
-0.639	2.28
-0.637	2.28
-0.636	2.28
-0.635	2.28
-0.633	2.28
-0.632	2.28
-0.630	2.28
-0.628	2.28
-0.627	2.28
-0.626	2.28
-0.624	2.28
-0.623	2.28
-0.621	2.28
-0.619	2.28
-0.618	2.28
-0.617	2.28
-0.615	2.28
-0.613	2.28
-0.612	2.28
-0.610	2.28
-0.609	2.28
-0.608	2.28
-0.606	2.28
-0.604	2.28
-0.603	2.28
-0.601	2.28
-0.600	2.28
-0.599	2.28
-0.597	2.28
-0.595	2.28
-0.594	2.28
-0.592	2.28
-0.591	2.28
-0.590	2.28
-0.588	2.28
-0.586	2.28
-0.585	2.28
-0.584	2.28
-0.582	2.28
-0.581	2.28
-0.579	2.28
-0.577	2.28
-0.576	2.28
-0.575	2.28
-0.573	2.27
-0.572	2.27
-0.570	2.27
-0.568	2.27
-0.567	2.27
-0.566	2.27
-0.564	2.27
-0.563	2.27
-0.561	2.27
-0.559	2.27
-0.558	2.27
-0.557	2.27
-0.555	2.26
-0.553	2.26
-0.552	2.26
-0.550	2.26
-0.549	2.26
-0.548	2.26
-0.546	2.26
-0.544	2.26
-0.543	2.25
-0.541	2.26
-0.540	2.25
-0.539	2.25
-0.537	2.25
-0.535	2.25
-0.534	2.25
-0.533	2.25
-0.531	2.25
-0.530	2.25
-0.528	2.24
-0.526	2.24
-0.525	2.24
-0.524	2.24
-0.522	2.24
-0.521	2.24
-0.519	2.24
-0.517	2.24
-0.516	2.24
-0.515	2.24
-0.513	2.23
-0.512	2.23
-0.510	2.23
-0.508	2.23
-0.507	2.23
-0.506	2.23
-0.504	2.23
-0.502	2.23
-0.501	2.23
-0.500	2.23
-0.498	2.23
-0.496	2.23
-0.495	2.22
-0.493	2.23
-0.492	2.22
-0.491	2.22
-0.489	2.22
-0.488	2.22
-0.486	2.22
-0.484	2.22
-0.483	2.22
-0.481	2.22
-0.480	2.22
-0.479	2.22
-0.477	2.22
-0.475	2.23
-0.474	2.23
-0.472	2.23
-0.471	2.22
-0.470	2.22
-0.468	2.22
-0.467	2.22
-0.465	2.22
-0.463	2.23
-0.462	2.23
-0.461	2.23
-0.459	2.23
-0.458	2.23
-0.456	2.23
-0.454	2.23
-0.453	2.23
-0.451	2.23
-0.450	2.23
-0.449	2.23
-0.447	2.23
-0.445	2.23
-0.444	2.23
-0.442	2.23
-0.441	2.23
-0.440	2.23
-0.438	2.23
-0.437	2.23
-0.435	2.23
-0.433	2.23
-0.432	2.23
-0.431	2.23
-0.429	2.23
-0.428	2.23
-0.426	2.23
-0.424	2.23
-0.423	2.23
-0.421	2.23
-0.420	2.24
-0.419	2.24
-0.417	2.23
-0.415	2.23
-0.414	2.23
-0.412	2.23
-0.411	2.23
-0.410	2.23
-0.408	2.23
-0.407	2.23
-0.405	2.23
-0.403	2.23
-0.402	2.23
-0.400	2.23
-0.399	2.23
-0.398	2.23
-0.396	2.23
-0.394	2.23
-0.393	2.23
-0.391	2.23
-0.390	2.23
-0.389	2.23
-0.387	2.23
-0.386	2.23
-0.384	2.23
-0.382	2.23
-0.381	2.23
-0.380	2.23
-0.378	2.23
-0.377	2.24
-0.375	2.23
-0.373	2.24
-0.372	2.23
-0.370	2.23
-0.369	2.23
-0.368	2.23
-0.366	2.23
-0.364	2.24
-0.363	2.24
-0.361	2.24
-0.360	2.24
-0.359	2.24
-0.357	2.24
-0.356	2.24
-0.354	2.24
-0.352	2.24
-0.351	2.24
-0.350	2.24
-0.348	2.24
-0.347	2.24
-0.345	2.24
-0.343	2.25
-0.342	2.25
-0.340	2.25
-0.339	2.25
-0.338	2.25
-0.336	2.25
-0.335	2.25
-0.333	2.25
-0.331	2.25
-0.330	2.25
-0.329	2.25
-0.327	2.25
-0.326	2.26
-0.324	2.26
-0.322	2.26
-0.321	2.26
-0.319	2.26
-0.318	2.26
-0.317	2.26
-0.315	2.26
-0.313	2.27
-0.312	2.27
-0.310	2.27
-0.309	2.27
-0.308	2.27
-0.306	2.27
-0.305	2.27
-0.303	2.27
-0.301	2.28
-0.300	2.28
-0.299	2.28
-0.297	2.28
-0.296	2.28
-0.294	2.28
-0.292	2.28
-0.291	2.28
-0.289	2.28
-0.288	2.28
-0.287	2.29
-0.285	2.29
-0.283	2.29
-0.282	2.29
-0.280	2.29
-0.279	2.29
-0.278	2.29
-0.276	2.29
-0.275	2.29
-0.273	2.29
-0.271	2.29
-0.270	2.29
-0.269	2.30
-0.267	2.30
-0.266	2.30
-0.264	2.30
-0.262	2.30
-0.261	2.30
-0.259	2.31
-0.258	2.31
-0.257	2.31
-0.255	2.31
-0.254	2.31
-0.252	2.32
-0.250	2.32
-0.249	2.32
-0.248	2.32
-0.246	2.32
-0.244	2.33
-0.243	2.33
-0.242	2.33
-0.240	2.33
-0.238	2.34
-0.237	2.34
-0.235	2.34
-0.234	2.34
-0.233	2.34
-0.231	2.35
-0.229	2.35
-0.228	2.35
-0.227	2.35
-0.225	2.36
-0.223	2.36
-0.222	2.36
-0.221	2.37
-0.219	2.37
-0.218	2.37
-0.216	2.38
-0.214	2.38
-0.213	2.38
-0.212	2.38
-0.210	2.39
-0.208	2.39
-0.207	2.39
-0.206	2.40
-0.204	2.40
-0.203	2.40
-0.201	2.41
-0.199	2.41
-0.198	2.41
-0.197	2.42
-0.195	2.42
-0.193	2.42
-0.192	2.42
-0.191	2.42
-0.189	2.42
-0.188	2.43
-0.186	2.43
-0.184	2.43
-0.183	2.44
-0.182	2.44
-0.180	2.44
-0.178	2.44
-0.177	2.44
-0.176	2.45
-0.174	2.45
-0.172	2.45
-0.171	2.45
-0.169	2.45
-0.168	2.46
-0.167	2.46
-0.165	2.46
-0.163	2.46
-0.162	2.46
-0.161	2.47
-0.159	2.47
-0.157	2.47
-0.156	2.47
-0.154	2.47
-0.153	2.47
-0.152	2.47
-0.150	2.47
-0.148	2.48
-0.147	2.48
-0.146	2.48
-0.144	2.48
-0.142	2.48
-0.141	2.48
-0.140	2.48
-0.138	2.48
-0.137	2.48
-0.135	2.48
-0.133	2.48
-0.132	2.48
-0.131	2.48
-0.129	2.49
-0.127	2.49
-0.126	2.49
-0.124	2.49
-0.123	2.49
-0.122	2.49
-0.120	2.49
-0.119	2.49
-0.117	2.49
-0.116	2.49
-0.114	2.49
-0.112	2.49
-0.111	2.49
-0.109	2.49
-0.108	2.49
-0.106	2.49
-0.105	2.49
-0.104	2.49
-0.102	2.49
-0.101	2.49
-0.099	2.49
-0.097	2.49
-0.096	2.49
-0.094	2.49
-0.093	2.49
-0.091	2.49
-0.090	2.49
-0.089	2.49
-0.087	2.49
-0.086	2.49
-0.084	2.49
-0.083	2.49
-0.081	2.49
-0.079	2.49
-0.078	2.48
-0.076	2.48
-0.075	2.48
-0.073	2.48
-0.072	2.48
-0.071	2.48
-0.069	2.48
-0.068	2.48
-0.066	2.48
-0.064	2.48
-0.063	2.48
-0.062	2.48
-0.060	2.48
-0.058	2.48
-0.057	2.48
-0.056	2.48
-0.054	2.48
-0.052	2.48
-0.051	2.48
-0.049	2.48
-0.048	2.48
-0.047	2.48
-0.045	2.48
-0.043	2.48
-0.042	2.48
-0.041	2.48
-0.039	2.48
-0.038	2.47
-0.036	2.47
-0.034	2.47
-0.033	2.47
-0.032	2.47
-0.030	2.47
-0.029	2.47
-0.027	2.47
-0.025	2.47
-0.024	2.47
-0.023	2.47
-0.021	2.47
-0.020	2.47
-0.018	2.47
-0.016	2.47
-0.015	2.46
-0.014	2.47
-0.012	2.46
-0.010	2.46
-0.009	2.46
-0.007	2.46
-0.006	2.46
-0.004	2.46
-0.003	2.46
-0.002	2.46
0.000	2.46
0.002	2.46
0.003	2.46
0.004	2.46
0.006	2.45
0.007	2.45
0.009	2.45
0.010	2.45
0.012	2.45
0.014	2.45
0.015	2.45
0.016	2.45
0.018	2.45
0.020	2.45
0.021	2.45
0.023	2.44
0.024	2.44
0.025	2.44
0.027	2.44
0.029	2.44
0.030	2.44
0.032	2.44
0.033	2.44
0.034	2.44
0.036	2.44
0.038	2.44
0.039	2.43
0.041	2.43
0.042	2.43
0.043	2.43
0.045	2.43
0.047	2.43
0.048	2.43
0.049	2.43
0.051	2.43
0.052	2.43
0.054	2.43
0.056	2.42
0.057	2.42
0.058	2.42
0.060	2.42
0.062	2.42
0.063	2.42
0.064	2.42
0.066	2.41
0.068	2.41
0.069	2.41
0.071	2.41
0.072	2.41
0.073	2.41
0.075	2.41
0.076	2.41
0.078	2.41
0.079	2.41
0.081	2.41
0.083	2.41
0.084	2.41
0.086	2.41
0.087	2.40
0.089	2.40
0.090	2.40
0.091	2.40
0.093	2.40
0.094	2.40
0.096	2.40
0.097	2.40
0.099	2.40
0.101	2.40
0.102	2.40
0.104	2.40
0.105	2.40
0.106	2.40
0.108	2.40
0.109	2.40
0.111	2.40
0.112	2.40
0.114	2.40
0.116	2.40
0.117	2.40
0.119	2.40
0.120	2.40
0.122	2.40
0.123	2.40
0.124	2.40
0.126	2.40
0.127	2.40
0.129	2.40
0.131	2.40
0.132	2.40
0.133	2.40
0.135	2.40
0.137	2.40
0.138	2.40
0.140	2.40
0.141	2.40
0.142	2.39
0.144	2.39
0.146	2.40
0.147	2.39
0.148	2.39
0.150	2.40
0.152	2.40
0.153	2.39
0.154	2.40
0.156	2.39
0.157	2.39
0.159	2.39
0.161	2.39
0.162	2.39
0.163	2.39
0.165	2.39
0.167	2.39
0.168	2.39
0.169	2.39
0.171	2.39
0.172	2.39
0.174	2.38
0.176	2.38
0.177	2.38
0.178	2.38
0.180	2.38
0.182	2.38
0.183	2.38
0.184	2.38
0.186	2.38
0.188	2.38
0.189	2.38
0.191	2.38
0.192	2.38
0.193	2.37
0.195	2.37
0.197	2.37
0.198	2.37
0.199	2.37
0.201	2.37
0.203	2.37
0.204	2.36
0.206	2.36
0.207	2.36
0.208	2.36
0.210	2.36
0.212	2.36
0.213	2.36
0.214	2.36
0.216	2.36
0.218	2.35
0.219	2.35
0.221	2.35
0.222	2.35
0.223	2.35
0.225	2.35
0.227	2.35
0.228	2.34
0.229	2.35
0.231	2.34
0.233	2.34
0.234	2.34
0.235	2.34
0.237	2.33
0.238	2.33
0.240	2.33
0.242	2.33
0.243	2.33
0.244	2.33
0.246	2.33
0.248	2.32
0.249	2.32
0.250	2.32
0.252	2.32
0.254	2.32
0.255	2.32
0.257	2.31
0.258	2.31
0.259	2.31
0.261	2.31
0.262	2.31
0.264	2.30
0.266	2.30
0.267	2.30
0.269	2.30
0.270	2.30
0.271	2.30
0.273	2.30
0.275	2.29
0.276	2.29
0.278	2.29
0.279	2.29
0.280	2.29
0.282	2.29
0.283	2.29
0.285	2.29
0.287	2.29
0.288	2.29
0.289	2.29
0.291	2.28
0.292	2.28
0.294	2.28
0.296	2.28
0.297	2.28
0.299	2.28
0.300	2.27
0.301	2.27
0.303	2.27
0.305	2.27
0.306	2.27
0.308	2.26
0.309	2.26
0.310	2.26
0.312	2.26
0.313	2.26
0.315	2.25
0.317	2.25
0.318	2.25
0.319	2.25
0.321	2.25
0.322	2.24
0.324	2.24
0.326	2.24
0.327	2.24
0.329	2.24
0.330	2.24
0.331	2.23
0.333	2.23
0.335	2.23
0.336	2.23
0.338	2.23
0.339	2.22
0.340	2.22
0.342	2.22
0.343	2.22
0.345	2.22
0.347	2.22
0.348	2.22
0.350	2.21
0.351	2.21
0.352	2.21
0.354	2.21
0.356	2.21
0.357	2.21
0.359	2.21
0.360	2.20
0.361	2.20
0.363	2.20
0.364	2.20
0.366	2.20
0.368	2.20
0.369	2.20
0.370	2.20
0.372	2.19
0.373	2.19
0.375	2.19
0.377	2.19
0.378	2.19
0.380	2.19
0.381	2.18
0.382	2.18
0.384	2.18
0.386	2.18
0.387	2.18
0.389	2.18
0.390	2.18
0.391	2.18
0.393	2.18
0.394	2.18
0.396	2.17
0.398	2.17
0.399	2.17
0.400	2.17
0.402	2.17
0.403	2.17
0.405	2.17
0.407	2.17
0.408	2.17
0.410	2.17
0.411	2.16
0.412	2.16
0.414	2.16
0.415	2.16
0.417	2.16
0.419	2.16
0.420	2.16
0.421	2.16
0.423	2.16
0.424	2.16
0.426	2.16
0.428	2.16
0.429	2.16
0.431	2.16
0.432	2.16
0.433	2.16
0.435	2.16
0.437	2.16
0.438	2.16
0.440	2.16
0.441	2.16
0.442	2.16
0.444	2.16
0.445	2.16
0.447	2.16
0.449	2.16
0.450	2.16
0.451	2.16
0.453	2.16
0.454	2.15
0.456	2.16
0.458	2.15
0.459	2.15
0.461	2.15
0.462	2.15
0.463	2.15
0.465	2.15
0.467	2.15
0.468	2.15
0.470	2.15
0.471	2.15
0.472	2.15
0.474	2.15
0.475	2.15
0.477	2.15
0.479	2.15
0.480	2.15
0.481	2.15
0.483	2.15
0.484	2.14
0.486	2.15
0.488	2.15
0.489	2.14
0.491	2.15
0.492	2.14
0.493	2.14
0.495	2.14
0.496	2.14
0.498	2.14
0.500	2.14
0.501	2.14
0.502	2.14
0.504	2.14
0.506	2.14
0.507	2.14
0.508	2.14
0.510	2.14
0.512	2.14
0.513	2.14
0.515	2.13
0.516	2.13
0.517	2.13
0.519	2.13
0.521	2.13
0.522	2.13
0.524	2.13
0.525	2.13
0.526	2.13
0.528	2.13
0.530	2.13
0.531	2.13
0.533	2.13
0.534	2.13
0.535	2.13
0.537	2.12
0.539	2.12
0.540	2.12
0.541	2.12
0.543	2.12
0.544	2.12
0.546	2.12
0.548	2.12
0.549	2.12
0.550	2.12
0.552	2.11
0.553	2.11
0.555	2.11
0.557	2.11
0.558	2.11
0.559	2.10
0.561	2.10
0.563	2.10
0.564	2.10
0.566	2.10
0.567	2.10
0.568	2.10
0.570	2.09
0.572	2.09
0.573	2.09
0.575	2.09
0.576	2.08
0.577	2.08
0.579	2.08
0.581	2.08
0.582	2.08
0.584	2.08
0.585	2.07
0.586	2.07
0.588	2.07
0.590	2.06
0.591	2.06
0.592	2.06
0.594	2.06
0.595	2.05
0.597	2.05
0.599	2.04
0.600	2.04
0.601	2.04
0.603	2.04
0.604	2.03
0.606	2.03
0.608	2.03
0.609	2.03
0.610	2.02
0.612	2.02
0.613	2.01
0.615	2.01
0.617	2.00
0.618	2.00
0.619	2.00
0.621	1.99
0.623	1.99
0.624	1.99
0.626	1.98
0.627	1.98
0.628	1.97
0.630	1.97
0.632	1.97
0.633	1.96
0.635	1.96
0.636	1.95
0.637	1.95
0.639	1.95
0.641	1.94
0.642	1.94
0.643	1.94
0.645	1.93
0.646	1.93
0.648	1.92
0.650	1.92
0.651	1.92
0.652	1.91
0.654	1.91
0.655	1.91
0.657	1.90
0.659	1.90
0.660	1.90
0.661	1.89
0.663	1.89
0.664	1.89
0.666	1.88
0.668	1.88
0.669	1.88
0.670	1.88
0.672	1.88
0.674	1.87
0.675	1.87
0.677	1.86
0.678	1.86
0.679	1.86
0.681	1.86
0.683	1.86
0.684	1.85
0.686	1.85
0.687	1.85
0.688	1.85
0.690	1.84
0.692	1.84
0.693	1.84
0.695	1.84
0.696	1.83
0.697	1.83
0.699	1.83
0.701	1.83
0.702	1.83
0.703	1.83
0.705	1.82
0.706	1.82
0.708	1.82
0.710	1.82
0.711	1.82
0.712	1.81
0.714	1.81
0.715	1.81
0.717	1.81
0.719	1.81
0.720	1.80
0.721	1.80
0.723	1.80
0.725	1.80
0.726	1.80
0.728	1.80
0.729	1.79
0.730	1.79
0.732	1.79
0.734	1.79
0.735	1.79
0.737	1.79
0.738	1.78
0.739	1.78
0.741	1.78
0.743	1.78
0.744	1.78
0.746	1.78
0.747	1.78
0.748	1.78
0.750	1.77
0.752	1.77
0.753	1.77
0.754	1.77
0.756	1.77
0.757	1.77
0.759	1.76
0.761	1.76
0.762	1.76
0.763	1.76
0.765	1.76
0.766	1.76
0.768	1.76
0.770	1.75
0.771	1.75
0.772	1.75
0.774	1.75
0.775	1.75
0.777	1.74
0.779	1.74
0.780	1.74
0.781	1.74
0.783	1.74
0.785	1.74
0.786	1.74
0.788	1.74
0.789	1.73
0.790	1.73
0.792	1.73
0.794	1.73
0.795	1.72
0.797	1.72
0.798	1.72
0.799	1.72
0.801	1.72
0.803	1.72
0.804	1.72
0.805	1.71
0.807	1.71
0.808	1.71
0.810	1.71
0.812	1.71
0.813	1.71
0.814	1.70
0.816	1.70
0.817	1.70
0.819	1.70
0.821	1.70
0.822	1.70
0.823	1.70
0.825	1.70
0.826	1.70
0.828	1.70
0.830	1.69
0.831	1.69
0.832	1.69
0.834	1.69
0.836	1.69
0.837	1.68
0.839	1.68
0.840	1.68
0.841	1.68
0.843	1.68
0.845	1.68
0.846	1.68
0.848	1.68
0.849	1.67
0.850	1.67
0.852	1.67
0.854	1.67
0.855	1.67
0.857	1.67
0.858	1.67
0.859	1.67
0.861	1.67
0.863	1.67
0.864	1.67
0.865	1.67
0.867	1.66
0.868	1.66
0.870	1.66
0.872	1.66
0.873	1.66
0.874	1.66
0.876	1.66
0.877	1.66
0.879	1.66
0.881	1.65
0.882	1.65
0.883	1.65
0.885	1.65
0.887	1.65
0.888	1.65
0.890	1.65
0.891	1.65
0.892	1.65
0.894	1.65
0.896	1.65
0.897	1.64
0.899	1.65
0.900	1.65
0.901	1.64
0.903	1.64
0.905	1.65
0.906	1.65
0.908	1.64
0.909	1.64
0.910	1.64
0.912	1.64
0.914	1.64
0.915	1.64
0.916	1.64
0.918	1.64
0.919	1.64
0.921	1.64
0.923	1.64
0.924	1.64
0.925	1.64
0.927	1.64
0.928	1.64
0.930	1.64
0.932	1.64
0.933	1.64
0.934	1.64
0.936	1.64
0.938	1.64
0.939	1.64
0.941	1.64
0.942	1.64
0.943	1.64
0.945	1.64
0.947	1.64
0.948	1.64
0.950	1.64
0.951	1.64
0.952	1.64
0.954	1.64
0.956	1.64
0.957	1.64
0.959	1.64
0.960	1.64
0.961	1.64
0.963	1.64
0.965	1.64
0.966	1.64
0.967	1.64
0.969	1.64
0.970	1.64
0.972	1.64
0.974	1.64
0.975	1.64
0.976	1.64
0.978	1.64
0.979	1.64
0.981	1.64
0.983	1.64
0.984	1.64
0.985	1.64
0.987	1.64
0.988	1.64
0.990	1.64
0.992	1.64
0.993	1.64
0.994	1.64
0.996	1.64
0.998	1.64
0.999	1.64
1.000	1.64
1.002	1.64
1.003	1.64
1.005	1.64
1.007	1.64
1.008	1.64
1.010	1.64
1.011	1.64
1.013	1.64
1.014	1.64
1.015	1.64
1.017	1.64
1.018	1.64
1.020	1.64
1.021	1.64
1.023	1.64
1.025	1.64
1.026	1.64
1.028	1.64
1.029	1.64
1.031	1.65
1.032	1.64
1.033	1.65
1.035	1.65
1.036	1.65
1.038	1.65
1.039	1.65
1.041	1.65
1.043	1.65
1.044	1.65
1.046	1.65
1.047	1.65
1.048	1.65
1.050	1.65
1.051	1.65
1.053	1.65
1.054	1.65
1.056	1.65
1.058	1.65
1.059	1.65
1.061	1.65
1.062	1.65
1.064	1.65
1.065	1.65
1.066	1.65
1.068	1.65
1.069	1.65
1.071	1.65
1.072	1.65
1.074	1.65
1.076	1.65
1.077	1.65
1.079	1.65
1.080	1.65
1.082	1.65
1.083	1.65
1.084	1.65
1.086	1.65
1.087	1.65
1.089	1.65
1.090	1.65
1.092	1.64
1.094	1.64
1.095	1.64
1.097	1.65
1.098	1.65
1.099	1.64
1.101	1.64
1.102	1.65
1.104	1.64
1.105	1.64
1.107	1.64
1.109	1.64
1.110	1.64
1.112	1.64
1.113	1.64
1.115	1.64
1.116	1.64
1.117	1.64
1.119	1.63
1.120	1.63
1.122	1.63
1.123	1.63
1.125	1.63
1.127	1.63
1.128	1.63
1.130	1.63
1.131	1.63
1.133	1.63
1.134	1.63
1.135	1.63
1.137	1.62
1.138	1.62
1.140	1.62
1.141	1.62
1.143	1.62
1.145	1.62
1.146	1.62
1.148	1.62
1.149	1.62
1.151	1.62
1.152	1.61
1.153	1.61
1.155	1.61
1.156	1.61
1.158	1.61
1.160	1.61
1.161	1.61
1.163	1.61
1.164	1.60
1.166	1.60
1.167	1.60
1.168	1.60
1.170	1.60
1.171	1.60
1.173	1.60
1.174	1.59
1.176	1.59
1.178	1.59
1.179	1.59
1.181	1.59
1.182	1.59
1.184	1.59
1.185	1.59
1.186	1.59
1.188	1.58
1.189	1.58
1.191	1.58
1.192	1.58
1.194	1.58
1.196	1.58
1.197	1.58
1.199	1.58
1.200	1.58
1.202	1.58
1.203	1.58
1.204	1.58
1.206	1.58
1.207	1.58
1.209	1.57
1.211	1.58
1.212	1.57
1.214	1.57
1.215	1.57
1.217	1.57
1.218	1.57
1.219	1.57
1.221	1.57
1.222	1.57
1.224	1.57
1.225	1.57
1.227	1.57
1.229	1.57
1.230	1.57
1.232	1.57
1.233	1.57
1.235	1.57
1.236	1.57
1.237	1.57
1.239	1.57
1.240	1.56
1.242	1.56
1.243	1.56
1.245	1.56
1.247	1.56
1.248	1.56
1.250	1.56
1.251	1.56
1.253	1.56
1.254	1.56
1.255	1.56
1.257	1.56
1.258	1.56
1.260	1.56
1.262	1.56
1.263	1.56
1.265	1.56
1.266	1.55
1.268	1.55
1.269	1.55
1.270	1.55
1.272	1.55
1.273	1.55
1.275	1.55
1.276	1.55
1.278	1.55
1.280	1.55
1.281	1.55
1.283	1.55
1.284	1.55
1.286	1.55
1.287	1.55
1.288	1.55
1.290	1.55
1.291	1.55
1.293	1.55
1.294	1.55
1.296	1.55
1.298	1.56
1.299	1.55
1.301	1.55
1.302	1.55
1.304	1.56
1.305	1.55
1.306	1.56
1.308	1.56
1.309	1.56
1.311	1.56
1.313	1.56
1.314	1.56
1.316	1.56
1.317	1.56
1.319	1.56
1.320	1.56
1.321	1.57
1.323	1.57
1.324	1.57
1.326	1.57
1.327	1.57
1.329	1.57
1.331	1.57
1.332	1.57
1.334	1.58
1.335	1.58
1.337	1.58
1.338	1.58
1.339	1.58
1.341	1.58
1.342	1.58
1.344	1.58
1.345	1.58
1.347	1.59
1.349	1.59
1.350	1.59
1.352	1.59
1.353	1.59
1.355	1.59
1.356	1.60
1.357	1.60
1.359	1.60
1.360	1.60
1.362	1.60
1.363	1.60
1.365	1.60
1.367	1.60
1.368	1.61
1.370	1.61
1.371	1.61
1.372	1.61
1.374	1.61
1.375	1.61
1.377	1.61
1.378	1.61
1.380	1.62
1.382	1.62
1.383	1.62
1.385	1.62
1.386	1.62
1.388	1.62
1.389	1.62
1.390	1.62
1.392	1.62
1.393	1.63
1.395	1.63
1.396	1.63
1.398	1.63
1.400	1.63
1.401	1.63
1.403	1.63
1.404	1.63
1.406	1.63
1.407	1.63
1.408	1.63
1.410	1.64
1.411	1.64
1.413	1.64
1.414	1.64
1.416	1.64
1.418	1.64
1.419	1.64
1.421	1.64
1.422	1.64
1.423	1.65
1.425	1.64
1.426	1.65
1.428	1.65
1.429	1.65
1.431	1.65
1.433	1.65
1.434	1.65
1.436	1.65
1.437	1.65
1.439	1.65
1.440	1.65
1.441	1.65
1.443	1.65
1.444	1.65
1.446	1.65
1.447	1.66
1.449	1.66
1.451	1.66
1.452	1.66
1.454	1.66
1.455	1.66
1.457	1.66
1.458	1.66
1.459	1.66
1.461	1.66
1.462	1.66
1.464	1.66
1.465	1.66
1.467	1.66
1.469	1.66
1.470	1.66
1.472	1.66
1.473	1.66
1.474	1.67
1.476	1.67
1.477	1.67
1.479	1.67
1.480	1.67
1.482	1.67
1.484	1.67
1.485	1.67
1.487	1.67
1.488	1.67
1.490	1.67
1.491	1.67
1.492	1.67
1.494	1.67
1.495	1.67
1.497	1.67
1.498	1.67
1.500	1.67
1.502	1.67
1.503	1.67
1.505	1.67
1.506	1.67
1.508	1.67
1.509	1.67
1.510	1.67
1.512	1.67
1.513	1.67
1.515	1.67
1.516	1.67
1.518	1.67
1.520	1.67
1.521	1.67
1.523	1.67
1.524	1.67
1.526	1.67
1.527	1.67
1.528	1.68
1.530	1.68
1.531	1.68
1.533	1.68
1.535	1.68
1.536	1.68
1.538	1.68
1.539	1.68
1.541	1.68
1.542	1.68
1.543	1.68
1.545	1.68
1.546	1.68
1.548	1.68
1.549	1.68
1.551	1.68
1.553	1.68
1.554	1.68
1.556	1.68
1.557	1.68
1.559	1.68
1.560	1.68
1.561	1.68
1.563	1.68
1.564	1.68
1.566	1.68
1.567	1.68
1.569	1.69
1.571	1.69
1.572	1.69
1.574	1.69
1.575	1.69
1.577	1.69
1.578	1.69
1.579	1.69
1.581	1.69
1.582	1.69
1.584	1.69
1.586	1.69
1.587	1.69
1.589	1.69
1.590	1.69
1.592	1.69
1.593	1.69
1.594	1.69
1.596	1.69
1.597	1.69
1.599	1.69
1.600	1.69
1.602	1.69
1.604	1.69
1.605	1.69
1.607	1.69
1.608	1.69
1.610	1.69
1.611	1.69
1.612	1.69
1.614	1.69
1.615	1.69
1.617	1.69
1.618	1.69
1.620	1.69
1.622	1.69
1.623	1.69
1.625	1.69
1.626	1.69
1.628	1.69
1.629	1.69
1.630	1.69
1.632	1.69
1.633	1.69
1.635	1.69
1.637	1.69
1.638	1.69
1.640	1.69
1.641	1.69
1.643	1.69
1.644	1.69
1.645	1.69
1.647	1.70
1.648	1.70
1.650	1.70
1.651	1.70
1.653	1.70
1.655	1.70
1.656	1.70
1.658	1.70
1.659	1.70
1.661	1.70
1.662	1.70
1.663	1.70
1.665	1.71
1.666	1.71
1.668	1.71
1.669	1.71
1.671	1.71
1.673	1.71
1.674	1.71
1.676	1.71
1.677	1.71
1.679	1.71
1.680	1.71
1.681	1.71
1.683	1.71
1.684	1.71
1.686	1.71
1.688	1.71
1.689	1.71
1.691	1.71
1.692	1.71
1.694	1.71
1.695	1.71
1.696	1.71
1.698	1.71
1.699	1.71
1.701	1.71
1.702	1.71
1.704	1.71
1.706	1.71
1.707	1.71
1.709	1.71
1.710	1.71
1.712	1.71
1.713	1.71
1.714	1.71
1.716	1.71
1.717	1.71
1.719	1.71
1.720	1.71
1.722	1.71
1.724	1.71
1.725	1.71
1.727	1.71
1.728	1.71
1.730	1.71
1.731	1.71
1.732	1.71
1.734	1.71
1.735	1.71
1.737	1.71
1.738	1.71
1.740	1.71
1.742	1.71
1.743	1.71
1.745	1.71
1.746	1.71
1.747	1.72
1.749	1.71
1.750	1.72
1.752	1.72
1.753	1.72
1.755	1.72
1.757	1.72
1.758	1.72
1.760	1.72
1.761	1.72
1.763	1.72
1.764	1.72
1.765	1.72
1.767	1.72
1.768	1.72
1.770	1.72
1.771	1.72
1.773	1.72
1.775	1.72
1.776	1.72
1.778	1.72
1.779	1.72
1.781	1.72
1.782	1.72
1.783	1.73
1.785	1.73
1.786	1.73
1.788	1.73
1.789	1.73
1.791	1.73
1.793	1.73
1.794	1.73
1.796	1.73
1.797	1.73
1.798	1.73
1.800	1.73
1.801	1.73
1.803	1.73
1.804	1.73
1.806	1.73
1.808	1.73
1.809	1.73
1.811	1.73
1.812	1.73
1.814	1.73
1.815	1.73
1.816	1.73
1.818	1.73
1.819	1.73
1.821	1.73
1.822	1.73
1.824	1.73
1.826	1.73
1.827	1.73
1.829	1.73
1.830	1.73
1.832	1.73
1.833	1.73
1.834	1.73
1.836	1.73
1.837	1.73
1.839	1.73
1.840	1.73
1.842	1.73
1.844	1.73
1.845	1.73
1.847	1.73
1.848	1.74
1.849	1.74
1.851	1.74
1.852	1.74
1.854	1.74
1.855	1.74
1.857	1.74
1.859	1.74
1.860	1.74
1.862	1.74
1.863	1.74
1.865	1.74
1.866	1.74
1.867	1.74
1.869	1.75
1.870	1.74
1.872	1.75
1.873	1.75
1.875	1.75
1.877	1.75
1.878	1.75
1.880	1.75
1.881	1.75
1.883	1.75
1.884	1.76
1.885	1.76
1.887	1.76
1.888	1.76
1.890	1.77
1.891	1.77
1.893	1.77
1.895	1.77
1.896	1.77
1.898	1.77
1.899	1.77
1.901	1.78
1.902	1.78
1.903	1.78
1.905	1.78
1.906	1.78
1.908	1.79
1.910	1.79
1.911	1.79
1.913	1.79
1.914	1.79
1.916	1.79
1.917	1.80
1.918	1.80
1.920	1.80
1.921	1.80
1.923	1.80
1.924	1.81
1.926	1.81
1.928	1.81
1.929	1.81
1.931	1.82
1.932	1.82
1.934	1.82
1.935	1.82
1.936	1.82
1.938	1.82
1.939	1.83
1.941	1.83
1.942	1.83
1.944	1.83
1.946	1.83
1.947	1.84
1.949	1.84
1.950	1.84
1.952	1.84
1.953	1.84
1.954	1.84
1.956	1.85
1.957	1.85
1.959	1.85
1.961	1.85
1.962	1.85
1.964	1.86
1.965	1.86
1.967	1.86
1.968	1.86
1.969	1.86
1.971	1.86
1.972	1.87
1.974	1.87
1.975	1.87
1.977	1.87
1.979	1.87
1.980	1.88
1.982	1.88
1.983	1.88
1.985	1.88
1.986	1.88
1.987	1.88
1.989	1.88
1.990	1.88
1.992	1.88
1.993	1.89
1.995	1.89
1.997	1.89
1.998	1.89
2.000	1.89
2.001	1.90
2.003	1.90
2.004	1.90
2.006	1.90
2.007	1.90
2.009	1.91
2.010	1.91
2.011	1.91
2.013	1.91
2.014	1.91
2.016	1.91
2.017	1.91
2.019	1.92
2.020	1.92
2.022	1.92
2.023	1.92
2.025	1.92
2.026	1.92
2.028	1.92
2.030	1.93
2.031	1.93
2.033	1.93
2.034	1.93
2.036	1.93
2.037	1.93
2.039	1.93
2.040	1.93
2.042	1.94
2.043	1.94
2.045	1.94
2.046	1.94
2.047	1.94
2.049	1.94
2.050	1.95
2.052	1.95
2.053	1.95
2.055	1.95
2.056	1.95
2.058	1.95
2.059	1.95
2.061	1.95
2.063	1.95
2.064	1.96
2.066	1.96
2.067	1.96
2.069	1.96
2.070	1.96
2.072	1.96
2.073	1.96
2.075	1.96
2.076	1.96
2.078	1.96
2.079	1.97
2.080	1.97
2.082	1.97
2.083	1.97
2.085	1.97
2.086	1.97
2.088	1.97
2.089	1.97
2.091	1.97
2.092	1.98
2.094	1.98
2.095	1.98
2.097	1.98
2.099	1.98
2.100	1.98
2.102	1.98
2.103	1.98
2.105	1.98
2.106	1.99
2.108	1.99
2.109	1.99
2.111	1.99
2.112	1.99
2.114	1.99
2.115	1.99
2.116	1.99
2.118	1.99
2.119	1.99
2.121	2.00
2.122	2.00
2.124	2.00
2.125	2.00
2.127	2.00
2.128	2.00
2.130	2.00
2.132	2.00
2.133	2.00
2.135	2.00
2.136	2.00
2.138	2.01
2.139	2.01
2.141	2.01
2.142	2.01
2.144	2.01
2.145	2.01
2.147	2.01
2.148	2.02
2.149	2.02
2.151	2.02
2.152	2.02
2.154	2.02
2.155	2.02
2.157	2.02
2.158	2.02
2.160	2.02
2.161	2.03
2.163	2.03
2.164	2.03
2.166	2.03
2.168	2.03
2.169	2.03
2.171	2.03
2.172	2.03
2.174	2.03
2.175	2.03
2.177	2.03
2.178	2.03
2.180	2.03
2.181	2.03
2.182	2.03
2.184	2.04
2.185	2.04
2.187	2.04
2.188	2.04
2.190	2.04
2.191	2.04
2.193	2.03
2.194	2.04
2.196	2.03
2.197	2.03
2.199	2.03
2.201	2.04
2.202	2.03
2.204	2.03
2.205	2.04
2.207	2.04
2.208	2.04
2.210	2.04
2.211	2.03
2.213	2.03
2.214	2.03
2.216	2.03
2.217	2.03
2.218	2.04
2.220	2.04
2.221	2.04
2.223	2.04
2.224	2.04
2.226	2.04
2.227	2.04
2.229	2.04
2.230	2.03
2.232	2.03
2.234	2.04
2.235	2.04
2.237	2.03
2.238	2.03
2.240	2.04
2.241	2.04
2.243	2.04
2.244	2.04
2.246	2.04
2.247	2.04
2.249	2.04
2.250	2.04
2.251	2.04
2.253	2.04
2.254	2.04
2.256	2.04
2.257	2.04
2.259	2.04
2.260	2.04
2.262	2.04
2.263	2.04
2.265	2.04
2.266	2.04
2.268	2.04
2.270	2.04
2.271	2.04
2.273	2.04
2.274	2.04
2.276	2.05
2.277	2.04
2.279	2.05
2.280	2.05
2.282	2.05
2.283	2.05
2.284	2.05
2.286	2.05
2.287	2.05
2.289	2.05
2.290	2.05
2.292	2.05
2.293	2.05
2.295	2.05
2.296	2.06
2.298	2.06
2.299	2.06
2.301	2.06
2.303	2.06
2.304	2.06
2.306	2.06
2.307	2.06
2.309	2.06
2.310	2.06
2.312	2.06
2.313	2.06
2.315	2.06
2.316	2.07
2.318	2.07
2.319	2.07
2.320	2.07
2.322	2.07
2.323	2.07
2.325	2.07
2.326	2.07
2.328	2.07
2.329	2.07
2.331	2.07
2.332	2.07
2.334	2.07
2.336	2.08
2.337	2.07
2.339	2.08
2.340	2.08
2.342	2.08
2.343	2.08
2.345	2.08
2.346	2.08
2.348	2.08
2.349	2.08
2.351	2.08
2.352	2.08
2.353	2.08
2.355	2.08
2.356	2.08
2.358	2.08
2.359	2.08
2.361	2.08
2.362	2.08
2.364	2.08
2.365	2.08
2.367	2.08
2.368	2.08
2.370	2.08
2.372	2.08
2.373	2.08
2.375	2.08
2.376	2.08
2.378	2.08
2.379	2.08
2.381	2.08
2.382	2.08
2.384	2.09
2.385	2.08
2.386	2.08
2.388	2.09
2.389	2.08
2.391	2.08
2.392	2.09
2.394	2.09
2.395	2.09
2.397	2.09
2.398	2.09
2.400	2.09
2.401	2.09
2.403	2.09
2.405	2.09
2.406	2.09
2.408	2.09
2.409	2.09
2.411	2.09
2.412	2.09
2.414	2.09
2.415	2.09
2.417	2.09
2.418	2.09
2.420	2.10
2.421	2.09
2.422	2.10
2.424	2.09
2.425	2.10
2.427	2.09
2.428	2.10
2.430	2.09
2.431	2.09
2.433	2.10
2.434	2.10
2.436	2.10
2.438	2.10
2.439	2.10
2.441	2.10
2.442	2.10
2.444	2.10
2.445	2.10
2.447	2.10
2.448	2.10
2.450	2.10
2.451	2.10
2.453	2.10
2.454	2.11
2.455	2.11
2.457	2.11
2.458	2.11
2.460	2.11
2.461	2.11
2.463	2.11
2.464	2.12
2.466	2.12
2.467	2.12
2.469	2.12
2.470	2.12
2.472	2.12
2.474	2.12
2.475	2.13
2.477	2.13
2.478	2.13
2.480	2.13
2.481	2.13
2.483	2.14
2.484	2.14
2.486	2.14
2.487	2.14
2.489	2.14
2.490	2.15
2.491	2.15
2.493	2.15
2.494	2.16
2.496	2.16
2.497	2.16
2.499	2.16
2.500	2.17
2.502	2.17
2.503	2.17
2.505	2.18
2.507	2.18
2.508	2.18
2.510	2.19
2.511	2.19
2.513	2.19
2.514	2.20
2.516	2.20
2.517	2.20
2.519	2.21
2.520	2.21
2.522	2.21
2.523	2.22
2.524	2.22
2.526	2.22
2.527	2.22
2.529	2.23
2.530	2.23
2.532	2.23
2.533	2.24
2.535	2.24
2.536	2.24
2.538	2.25
2.539	2.25
2.541	2.25
2.543	2.26
2.544	2.26
2.546	2.26
2.547	2.26
2.549	2.27
2.550	2.27
2.552	2.27
2.553	2.28
2.555	2.28
2.556	2.28
2.557	2.29
2.559	2.29
2.560	2.29
2.562	2.29
2.563	2.29
2.565	2.29
2.566	2.29
2.568	2.30
2.569	2.30
2.571	2.30
2.572	2.30
2.574	2.31
2.576	2.31
2.577	2.31
2.579	2.32
2.580	2.32
2.582	2.32
2.583	2.32
2.585	2.32
2.586	2.32
2.588	2.33
2.589	2.33
2.591	2.33
2.592	2.33
2.593	2.33
2.595	2.34
2.596	2.34
2.598	2.34
2.599	2.35
2.601	2.35
2.602	2.35
2.604	2.35
2.605	2.35
2.607	2.35
2.609	2.36
2.610	2.36
2.612	2.36
2.613	2.36
2.615	2.36
2.616	2.37
2.618	2.37
2.619	2.37
2.621	2.37
2.622	2.37
2.624	2.37
2.625	2.38
2.626	2.38
2.628	2.38
2.629	2.38
2.631	2.38
2.632	2.39
2.634	2.39
2.635	2.39
2.637	2.39
2.638	2.39
2.640	2.39
2.641	2.39
2.643	2.40
2.645	2.40
2.646	2.40
2.648	2.40
2.649	2.40
2.651	2.40
2.652	2.40
2.654	2.40
2.655	2.40
2.657	2.41
2.658	2.41
2.659	2.41
2.661	2.41
2.662	2.41
2.664	2.41
2.665	2.41
2.667	2.41
2.668	2.41
2.670	2.41
2.671	2.41
2.673	2.41
2.674	2.42
2.676	2.42
2.678	2.42
2.679	2.42
2.681	2.42
2.682	2.42
2.684	2.42
2.685	2.42
2.687	2.41
2.688	2.42
2.690	2.42
2.691	2.41
2.693	2.42
2.694	2.42
2.695	2.42
2.697	2.41
2.698	2.42
2.700	2.41
2.701	2.42
2.703	2.41
2.704	2.41
2.706	2.41
2.707	2.41
2.709	2.41
2.711	2.41
2.712	2.41
2.714	2.41
2.715	2.42
2.717	2.41
2.718	2.41
2.720	2.41
2.721	2.41
2.723	2.41
2.724	2.41
2.726	2.41
2.727	2.41
2.728	2.41
2.730	2.41
2.731	2.41
2.733	2.41
2.734	2.41
2.736	2.41
2.737	2.41
2.739	2.41
2.740	2.41
2.742	2.41
2.743	2.41
2.745	2.41
2.747	2.41
2.748	2.41
2.750	2.41
2.751	2.41
2.753	2.41
2.754	2.41
2.756	2.41
2.757	2.41
2.759	2.41
2.760	2.41
2.761	2.41
2.763	2.41
2.764	2.41
2.766	2.41
2.767	2.41
2.769	2.41
2.770	2.41
2.772	2.41
2.773	2.41
2.775	2.41
2.776	2.41
2.778	2.41
2.780	2.41
2.781	2.41
2.783	2.41
2.784	2.41
2.786	2.41
2.787	2.41
2.789	2.41
2.790	2.41
2.792	2.41
2.793	2.41
2.795	2.41
2.796	2.41
2.797	2.41
2.799	2.41
2.800	2.41
2.802	2.41
2.803	2.41
2.805	2.41
2.806	2.41
2.808	2.41
2.809	2.41
2.811	2.41
2.813	2.41
2.814	2.41
2.816	2.41
2.817	2.41
2.819	2.41
2.820	2.41
2.822	2.41
2.823	2.40
2.825	2.40
2.826	2.40
2.828	2.40
2.829	2.40
2.830	2.40
2.832	2.40
2.833	2.40
2.835	2.40
2.836	2.40
2.838	2.40
2.839	2.40
2.841	2.40
2.842	2.40
2.844	2.40
2.845	2.40
2.847	2.40
2.849	2.40
2.850	2.40
2.852	2.40
2.853	2.41
2.855	2.41
2.856	2.41
2.858	2.41
2.859	2.41
2.861	2.41
2.862	2.41
2.864	2.41
2.865	2.41
2.866	2.41
2.868	2.41
2.869	2.41
2.871	2.41
2.872	2.41
2.874	2.41
2.875	2.41
2.877	2.41
2.878	2.41
2.880	2.41
2.882	2.41
2.883	2.41
2.885	2.41
2.886	2.41
2.888	2.41
2.889	2.41
2.891	2.42
2.892	2.41
2.894	2.41
2.895	2.41
2.897	2.42
2.898	2.41
2.899	2.41
2.901	2.41
2.902	2.41
2.904	2.41
2.905	2.41
2.907	2.41
2.908	2.41
2.910	2.41
2.911	2.42
2.913	2.41
2.914	2.41
2.916	2.41
2.918	2.42
2.919	2.41
2.921	2.42
2.922	2.41
2.924	2.42
2.925	2.42
2.927	2.42
2.928	2.42
2.930	2.42
2.931	2.42
2.932	2.42
2.934	2.42
2.935	2.43
2.937	2.42
2.938	2.43
2.940	2.43
2.941	2.43
2.943	2.43
2.944	2.43
2.946	2.43
2.947	2.43
2.949	2.43
2.951	2.43
2.952	2.43
2.954	2.43
2.955	2.44
2.957	2.44
2.958	2.44
2.960	2.44
2.961	2.44
2.963	2.44
2.964	2.44
2.966	2.44
2.967	2.44
2.968	2.44
2.970	2.44
2.971	2.44
2.973	2.44
2.974	2.44
2.976	2.44
2.977	2.44
2.979	2.44
2.980	2.44
2.982	2.44
2.984	2.44
2.985	2.44
2.987	2.44
2.988	2.44
2.990	2.44
2.991	2.44
2.993	2.44
2.994	2.44
2.996	2.44
2.997	2.44
2.999	2.44
3.000	2.44
3.001	2.44
3.003	2.44
3.004	2.44
3.006	2.44
3.007	2.44
3.009	2.44
3.010	2.44
3.012	2.44
3.013	2.44
3.015	2.44
3.016	2.44
3.018	2.43
3.020	2.43
3.021	2.43
3.023	2.43
3.024	2.43
3.026	2.43
3.027	2.43
3.029	2.43
3.030	2.43
3.032	2.43
3.033	2.43
3.034	2.43
3.036	2.42
3.037	2.42
3.039	2.42
3.040	2.42
3.042	2.42
3.043	2.42
3.045	2.42
3.046	2.41
3.048	2.41
3.049	2.41
3.051	2.41
3.053	2.41
3.054	2.41
3.056	2.41
3.057	2.41
3.059	2.41
3.060	2.40
3.062	2.40
3.063	2.40
3.065	2.40
3.066	2.40
3.068	2.40
3.069	2.40
3.070	2.39
3.072	2.39
3.073	2.39
3.075	2.39
3.076	2.39
3.078	2.39
3.079	2.39
3.081	2.38
3.082	2.38
3.084	2.38
3.086	2.38
3.087	2.38
3.089	2.38
3.090	2.38
3.092	2.38
3.093	2.38
3.095	2.38
3.096	2.37
3.098	2.37
3.099	2.37
3.101	2.37
3.102	2.37
3.103	2.37
3.105	2.37
3.106	2.37
3.108	2.37
3.109	2.37
3.111	2.37
3.112	2.37
3.114	2.36
3.115	2.36
3.117	2.36
3.118	2.36
3.120	2.36
3.122	2.36
3.123	2.36
3.125	2.36
3.126	2.36
3.128	2.36
3.129	2.36
3.131	2.37
3.132	2.37
3.134	2.37
3.135	2.37
3.136	2.37
3.138	2.37
3.139	2.37
3.141	2.37
3.142	2.37
3.144	2.37
3.145	2.38
3.147	2.38
3.148	2.38
3.150	2.38
3.151	2.38
3.153	2.38
3.155	2.39
3.156	2.38
3.158	2.39
3.159	2.39
3.161	2.39
3.162	2.39
3.164	2.39
3.165	2.40
3.167	2.40
3.168	2.40
3.170	2.40
3.171	2.40
3.172	2.40
3.174	2.41
3.175	2.41
3.177	2.41
3.178	2.41
3.180	2.41
3.181	2.41
3.183	2.41
3.184	2.42
3.186	2.42
3.188	2.42
3.189	2.42
3.191	2.42
3.192	2.42
3.194	2.43
3.195	2.43
3.197	2.43
3.198	2.43
3.200	2.43
3.201	2.43
3.203	2.43
3.204	2.43
3.205	2.43
3.207	2.43
3.208	2.44
3.210	2.44
3.211	2.44
3.213	2.44
3.214	2.44
3.216	2.44
3.217	2.44
3.219	2.44
3.220	2.44
3.222	2.44
3.224	2.44
3.225	2.44
3.227	2.44
3.228	2.45
3.230	2.45
3.231	2.45
3.233	2.45
3.234	2.45
3.236	2.45
3.237	2.45
3.239	2.45
3.240	2.45
3.241	2.45
3.243	2.45
3.244	2.45
3.246	2.45
3.247	2.45
3.249	2.45
3.250	2.45
3.252	2.45
3.253	2.45
3.255	2.45
3.257	2.45
3.258	2.45
3.260	2.45
3.261	2.45
3.263	2.45
3.264	2.45
3.266	2.46
3.267	2.46
3.269	2.46
3.270	2.46
3.272	2.46
3.273	2.46
3.274	2.46
3.276	2.46
3.277	2.46
3.279	2.46
3.280	2.46
3.282	2.46
3.283	2.46
3.285	2.46
3.286	2.46
3.288	2.46
3.289	2.46
3.291	2.46
3.293	2.46
3.294	2.46
3.296	2.46
3.297	2.46
3.299	2.46
3.300	2.46
3.302	2.46
3.303	2.46
3.305	2.47
3.306	2.47
3.307	2.47
3.309	2.47
3.310	2.47
3.312	2.47
3.313	2.48
3.315	2.47
3.316	2.47
3.318	2.48
3.319	2.48
3.321	2.48
3.322	2.48
3.324	2.48
3.326	2.48
3.327	2.48
3.329	2.49
3.330	2.49
3.332	2.49
3.333	2.49
3.335	2.49
3.336	2.49
3.338	2.49
3.339	2.49
3.341	2.49
3.342	2.50
3.343	2.50
3.345	2.50
3.346	2.50
3.348	2.50
3.349	2.50
3.351	2.50
3.352	2.50
3.354	2.50
3.355	2.50
3.357	2.50
3.359	2.51
3.360	2.51
3.362	2.51
3.363	2.51
3.365	2.51
3.366	2.51
3.368	2.52
3.369	2.52
3.371	2.52
3.372	2.52
3.374	2.52
3.375	2.52
3.376	2.52
3.378	2.52
3.379	2.53
3.381	2.53
3.382	2.53
3.384	2.53
3.385	2.53
3.387	2.53
3.388	2.54
3.390	2.53
3.391	2.54
3.393	2.54
3.395	2.54
3.396	2.54
3.398	2.54
3.399	2.54
3.401	2.54
3.402	2.55
3.404	2.55
3.405	2.55
3.407	2.55
3.408	2.55
3.409	2.55
3.411	2.55
3.412	2.55
3.414	2.55
3.415	2.56
3.417	2.56
3.418	2.56
3.420	2.56
3.421	2.56
3.423	2.56
3.424	2.57
3.426	2.57
3.428	2.57
3.429	2.57
3.431	2.57
3.432	2.57
3.434	2.58
3.435	2.57
3.437	2.57
3.438	2.58
3.440	2.58
3.441	2.58
3.443	2.58
3.444	2.58
3.445	2.58
3.447	2.58
3.448	2.59
3.450	2.59
3.451	2.59
3.453	2.59
3.454	2.59
3.456	2.59
3.457	2.59
3.459	2.59
3.461	2.59
3.462	2.59
3.464	2.59
3.465	2.59
3.467	2.60
3.468	2.60
3.470	2.60
3.471	2.60
3.473	2.60
3.474	2.60
3.476	2.60
3.477	2.60
3.478	2.60
3.480	2.60
3.481	2.60
3.483	2.60
3.484	2.60
3.486	2.60
3.487	2.60
3.489	2.60
3.490	2.60
3.492	2.60
3.493	2.60
3.495	2.60
3.497	2.60
3.498	2.60
3.500	2.60
3.501	2.60
3.503	2.60
3.504	2.60
3.506	2.60
3.507	2.60
3.509	2.59
3.510	2.59
3.511	2.59
3.513	2.59
3.514	2.59
3.516	2.59
3.517	2.59
3.519	2.59
3.520	2.59
3.522	2.59
3.523	2.59
3.525	2.58
3.526	2.59
3.528	2.58
3.530	2.58
3.531	2.58
3.533	2.58
3.534	2.57
3.536	2.57
3.537	2.57
3.539	2.57
3.540	2.57
3.542	2.57
3.543	2.57
3.545	2.56
3.546	2.56
3.547	2.56
3.549	2.56
3.550	2.56
3.552	2.55
3.553	2.55
3.555	2.55
3.556	2.55
3.558	2.54
3.559	2.54
3.561	2.54
3.563	2.54
3.564	2.54
3.566	2.53
3.567	2.53
3.569	2.53
3.570	2.53
3.572	2.52
3.573	2.52
3.575	2.52
3.576	2.52
3.578	2.52
3.579	2.51
3.580	2.51
3.582	2.51
3.583	2.51
3.585	2.50
3.586	2.50
3.588	2.50
3.589	2.50
3.591	2.50
3.592	2.50
3.594	2.50
3.595	2.49
3.597	2.49
3.599	2.49
3.600	2.49
3.602	2.49
3.603	2.49
3.605	2.49
3.606	2.49
3.608	2.48
3.609	2.48
3.611	2.48
3.612	2.48
3.614	2.48
3.615	2.48
3.616	2.48
3.618	2.47
3.619	2.47
3.621	2.47
3.622	2.47
3.624	2.47
3.625	2.47
3.627	2.47
3.628	2.47
3.630	2.47
3.632	2.47
3.633	2.47
3.635	2.47
3.636	2.46
3.638	2.46
3.639	2.46
3.641	2.46
3.642	2.46
3.644	2.46
3.645	2.46
3.647	2.46
3.648	2.46
3.649	2.46
3.651	2.46
3.652	2.46
3.654	2.45
3.655	2.45
3.657	2.45
3.658	2.45
3.660	2.45
3.661	2.45
3.663	2.45
3.664	2.45
3.666	2.45
3.668	2.45
3.669	2.44
3.671	2.44
3.672	2.44
3.674	2.44
3.675	2.44
3.677	2.44
3.678	2.44
3.680	2.44
3.681	2.44
3.682	2.44
3.684	2.43
3.685	2.43
3.687	2.43
3.688	2.43
3.690	2.43
3.691	2.43
3.693	2.43
3.694	2.43
3.696	2.42
3.697	2.42
3.699	2.42
3.701	2.42
3.702	2.42
3.704	2.42
3.705	2.42
3.707	2.42
3.708	2.42
3.710	2.42
3.711	2.41
3.713	2.41
3.714	2.41
3.716	2.41
3.717	2.41
3.718	2.41
3.720	2.41
3.721	2.41
3.723	2.41
3.724	2.41
3.726	2.41
3.727	2.41
3.729	2.41
3.730	2.41
3.732	2.41
3.734	2.41
3.735	2.41
3.737	2.41
3.738	2.41
3.740	2.41
3.741	2.41
3.743	2.41
3.744	2.41
3.746	2.41
3.747	2.41
3.749	2.40
3.750	2.40
3.751	2.40
3.753	2.40
3.754	2.40
3.756	2.40
3.757	2.40
3.759	2.40
3.760	2.40
3.762	2.40
3.763	2.40
3.765	2.40
3.766	2.40
3.768	2.40
3.770	2.40
3.771	2.40
3.773	2.40
3.774	2.40
3.776	2.40
3.777	2.39
3.779	2.40
3.780	2.39
3.782	2.39
3.783	2.39
3.784	2.39
3.786	2.39
3.787	2.39
3.789	2.39
3.790	2.39
3.792	2.39
3.793	2.39
3.795	2.39
3.796	2.39
3.798	2.39
3.799	2.39
3.801	2.39
3.803	2.39
3.804	2.39
3.806	2.39
3.807	2.38
3.809	2.38
3.810	2.38
3.812	2.38
3.813	2.38
3.815	2.38
3.816	2.38
3.818	2.38
3.819	2.38
3.820	2.38
3.822	2.38
3.823	2.38
3.825	2.38
3.826	2.38
3.828	2.38
3.829	2.37
3.831	2.37
3.832	2.37
3.834	2.37
3.836	2.37
3.837	2.37
3.839	2.37
3.840	2.37
3.842	2.37
3.843	2.37
3.845	2.37
3.846	2.37
3.848	2.37
3.849	2.37
3.851	2.37
3.852	2.36
3.853	2.37
3.855	2.36
3.856	2.37
3.858	2.36
3.859	2.36
3.861	2.37
3.862	2.37
3.864	2.37
3.865	2.36
3.867	2.36
3.868	2.36
3.870	2.36
3.872	2.36
3.873	2.36
3.875	2.36
3.876	2.36
3.878	2.36
3.879	2.36
3.881	2.36
3.882	2.36
3.884	2.36
3.885	2.36
3.886	2.36
3.888	2.36
3.889	2.36
3.891	2.36
3.892	2.36
3.894	2.36
3.895	2.36
3.897	2.36
3.898	2.36
3.900	2.36
3.901	2.36
3.903	2.36
3.905	2.36
3.906	2.36
3.908	2.36
3.909	2.35
3.911	2.36
3.912	2.35
3.914	2.35
3.915	2.35
3.917	2.35
3.918	2.35
3.920	2.35
3.921	2.35
3.922	2.35
3.924	2.35
3.925	2.35
3.927	2.35
3.928	2.35
3.930	2.34
3.931	2.34
3.933	2.34
3.934	2.34
3.936	2.34
3.938	2.34
3.939	2.34
3.941	2.34
3.942	2.34
3.944	2.34
3.945	2.33
3.947	2.33
3.948	2.33
3.950	2.33
3.951	2.33
3.953	2.33
3.954	2.33
3.955	2.33
3.957	2.33
3.958	2.32
3.960	2.32
3.961	2.32
3.963	2.32
3.964	2.32
3.966	2.32
3.967	2.31
3.969	2.31
3.970	2.31
3.972	2.31
3.974	2.31
3.975	2.31
3.977	2.31
3.978	2.30
3.980	2.30
3.981	2.30
3.983	2.30
3.984	2.30
3.986	2.30
3.987	2.29
3.989	2.29
3.990	2.29
3.991	2.29
3.993	2.29
3.994	2.29
3.996	2.29
3.997	2.29
3.999	2.29
4.001	2.29
4.002	2.29
4.003	2.29
4.005	2.28
4.006	2.28
4.008	2.28
4.010	2.27
4.011	2.27
4.012	2.27
4.014	2.27
4.016	2.27
4.017	2.27
4.018	2.27
4.020	2.27
4.022	2.26
4.023	2.26
4.024	2.26
4.026	2.26
4.028	2.26
4.029	2.25
4.030	2.25
4.032	2.25
4.034	2.25
4.035	2.25
4.036	2.25
4.038	2.25
4.040	2.25
4.041	2.24
4.043	2.24
4.044	2.24
4.045	2.24
4.047	2.24
4.049	2.24
4.050	2.23
4.051	2.23
4.053	2.23
4.055	2.23
4.056	2.23
4.057	2.23
4.059	2.23
4.061	2.23
4.062	2.22
4.063	2.22
4.065	2.22
4.067	2.22
4.068	2.22
4.069	2.22
4.071	2.21
4.073	2.21
4.074	2.21
4.076	2.21
4.077	2.21
4.078	2.21
4.080	2.21
4.082	2.21
4.083	2.20
4.084	2.20
4.086	2.20
4.088	2.20
4.089	2.20
4.090	2.20
4.092	2.20
4.094	2.20
4.095	2.20
4.096	2.20
4.098	2.19
4.100	2.19
4.101	2.19
4.102	2.19
4.104	2.19
4.106	2.19
4.107	2.19
4.109	2.19
4.110	2.18
4.111	2.18
4.113	2.18
4.115	2.18
4.116	2.18
4.117	2.18
4.119	2.18
4.121	2.17
4.122	2.17
4.123	2.17
4.125	2.17
4.127	2.17
4.128	2.17
4.129	2.17
4.131	2.16
4.133	2.16
4.134	2.16
4.135	2.16
4.137	2.16
4.139	2.16
4.140	2.16
4.141	2.15
4.143	2.15
4.144	2.15
4.146	2.15
4.148	2.15
4.149	2.14
4.150	2.14
4.152	2.14
4.154	2.14
4.155	2.14
4.156	2.14
4.158	2.13
4.160	2.13
4.161	2.13
4.162	2.13
4.164	2.13
4.166	2.12
4.167	2.12
4.168	2.12
4.170	2.12
4.172	2.12
4.173	2.12
4.174	2.12
4.176	2.11
4.177	2.11
4.179	2.11
4.181	2.11
4.182	2.10
4.183	2.10
4.185	2.10
4.187	2.10
4.188	2.10
4.189	2.10
4.191	2.09
4.193	2.09
4.194	2.09
4.195	2.09
4.197	2.09
4.199	2.09
4.200	2.08
4.201	2.08
4.203	2.08
4.205	2.08
4.206	2.08
4.207	2.08
4.209	2.08
4.210	2.08
4.212	2.08
4.214	2.07
4.215	2.07
4.216	2.07
4.218	2.07
4.220	2.07
4.221	2.07
4.222	2.07
4.224	2.06
4.226	2.06
4.227	2.06
4.228	2.06
4.230	2.06
4.232	2.06
4.233	2.06
4.234	2.05
4.236	2.05
4.238	2.05
4.239	2.05
4.240	2.05
4.242	2.05
4.244	2.04
4.245	2.04
4.247	2.04
4.248	2.04
4.249	2.04
4.251	2.04
4.253	2.04
4.254	2.04
4.255	2.03
4.257	2.03
4.259	2.03
4.260	2.03
4.261	2.03
4.263	2.02
4.265	2.02
4.266	2.02
4.267	2.02
4.269	2.02
4.271	2.02
4.272	2.02
4.273	2.02
4.275	2.01
4.277	2.01
4.278	2.01
4.280	2.01
4.281	2.00
4.282	2.00
4.284	2.00
4.286	2.00
4.287	2.00
4.288	2.00
4.290	2.00
4.292	2.00
4.293	1.99
4.294	1.99
4.296	1.99
4.298	1.99
4.299	1.99
4.300	1.98
4.302	1.98
4.304	1.98
4.305	1.98
4.306	1.98
4.308	1.97
4.310	1.97
4.311	1.97
4.313	1.97
4.314	1.97
4.315	1.97
4.317	1.97
4.319	1.96
4.320	1.96
4.321	1.96
4.323	1.96
4.325	1.96
4.326	1.96
4.327	1.96
4.329	1.95
4.331	1.95
4.332	1.95
4.333	1.95
4.335	1.95
4.337	1.95
4.338	1.95
4.339	1.94
4.341	1.94
4.343	1.94
4.344	1.94
4.345	1.94
4.347	1.94
4.348	1.94
4.350	1.94
4.352	1.93
4.353	1.94
4.354	1.93
4.356	1.93
4.358	1.93
4.359	1.93
4.360	1.93
4.362	1.93
4.364	1.93
4.365	1.92
4.366	1.93
4.368	1.92
4.370	1.92
4.371	1.92
4.372	1.92
4.374	1.92
4.376	1.92
4.377	1.92
4.378	1.92
4.380	1.92
4.381	1.92
4.383	1.92
4.385	1.92
4.386	1.92
4.387	1.92
4.389	1.92
4.391	1.92
4.392	1.92
4.393	1.92
4.395	1.92
4.397	1.92
4.398	1.92
4.399	1.92
4.401	1.92
4.403	1.92
4.404	1.92
4.405	1.92
4.407	1.92
4.409	1.92
4.410	1.92
4.411	1.92
4.413	1.92
4.415	1.92
4.416	1.92
4.418	1.91
4.419	1.91
4.420	1.91
4.422	1.91
4.424	1.91
4.425	1.91
4.426	1.91
4.428	1.92
4.430	1.92
4.431	1.92
4.432	1.91
4.434	1.92
4.436	1.92
4.437	1.91
4.438	1.92
4.440	1.91
4.442	1.91
4.443	1.91
4.444	1.91
4.446	1.91
4.448	1.92
4.449	1.92
4.451	1.92
4.452	1.92
4.453	1.92
4.455	1.92
4.457	1.92
4.458	1.92
4.459	1.92
4.461	1.92
4.463	1.92
4.464	1.92
4.465	1.92
4.467	1.92
4.469	1.92
4.470	1.92
4.471	1.92
4.473	1.92
4.475	1.92
4.476	1.92
4.477	1.92
4.479	1.92
4.481	1.92
4.482	1.91
4.484	1.92
4.485	1.91
4.486	1.92
4.488	1.92
4.490	1.92
4.491	1.91
4.492	1.92
4.494	1.91
4.496	1.91
4.497	1.91
4.498	1.91
4.500	1.91
4.502	1.91
4.503	1.91
4.504	1.91
4.506	1.91
4.508	1.91
4.509	1.91
4.510	1.91
4.512	1.91
4.514	1.91
4.515	1.91
4.516	1.91
4.518	1.91
4.519	1.91
4.521	1.91
4.523	1.91
4.524	1.91
4.525	1.91
4.527	1.91
4.529	1.91
4.530	1.91
4.531	1.91
4.533	1.91
4.535	1.91
4.536	1.91
4.537	1.90
4.539	1.90
4.541	1.90
4.542	1.90
4.543	1.90
4.545	1.90
4.547	1.91
4.548	1.90
4.549	1.91
4.551	1.91
4.552	1.91
4.554	1.91
4.556	1.91
4.557	1.90
4.558	1.91
4.560	1.90
4.562	1.90
4.563	1.90
4.564	1.91
4.566	1.90
4.568	1.91
4.569	1.91
4.570	1.91
4.572	1.91
4.574	1.91
4.575	1.91
4.576	1.91
4.578	1.91
4.580	1.90
4.581	1.91
4.582	1.91
4.584	1.91
4.585	1.91
4.587	1.91
4.589	1.91
4.590	1.91
4.591	1.91
4.593	1.91
4.595	1.91
4.596	1.91
4.597	1.91
4.599	1.91
4.601	1.91
4.602	1.91
4.603	1.91
4.605	1.91
4.607	1.91
4.608	1.91
4.609	1.91
4.611	1.91
4.613	1.91
4.614	1.91
4.615	1.91
4.617	1.91
4.619	1.91
4.620	1.91
4.622	1.91
4.623	1.91
4.624	1.91
4.626	1.91
4.628	1.91
4.629	1.91
4.630	1.91
4.632	1.91
4.634	1.91
4.635	1.91
4.636	1.91
4.638	1.90
4.640	1.90
4.641	1.90
4.642	1.90
4.644	1.90
4.646	1.90
4.647	1.90
4.648	1.90
4.650	1.90
4.652	1.90
4.653	1.90
4.655	1.90
4.656	1.90
4.657	1.90
4.659	1.89
4.661	1.89
4.662	1.89
4.663	1.89
4.665	1.89
4.667	1.89
4.668	1.89
4.669	1.89
4.671	1.89
4.673	1.88
4.674	1.88
4.675	1.88
4.677	1.88
4.679	1.88
4.680	1.88
4.681	1.88
4.683	1.88
4.685	1.88
4.686	1.88
4.688	1.88
4.689	1.88
4.690	1.87
4.692	1.87
4.694	1.87
4.695	1.87
4.696	1.87
4.698	1.86
4.700	1.86
4.701	1.86
4.702	1.86
4.704	1.86
4.706	1.86
4.707	1.85
4.708	1.85
4.710	1.85
4.712	1.85
4.713	1.84
4.714	1.84
4.716	1.84
4.718	1.84
4.719	1.83
4.720	1.83
4.722	1.83
4.723	1.83
4.725	1.83
4.727	1.82
4.728	1.82
4.729	1.82
4.731	1.81
4.733	1.81
4.734	1.81
4.735	1.81
4.737	1.80
4.739	1.80
4.740	1.80
4.741	1.80
4.743	1.79
4.745	1.79
4.746	1.79
4.747	1.79
4.749	1.78
4.751	1.78
4.752	1.77
4.753	1.77
4.755	1.77
4.756	1.77
4.758	1.76
4.760	1.76
4.761	1.76
4.762	1.76
4.764	1.76
4.766	1.75
4.767	1.75
4.768	1.75
4.770	1.75
4.772	1.74
4.773	1.74
4.774	1.74
4.776	1.74
4.778	1.73
4.779	1.73
4.780	1.73
4.782	1.73
4.784	1.73
4.785	1.73
4.786	1.73
4.788	1.73
4.790	1.72
4.791	1.72
4.793	1.72
4.794	1.72
4.795	1.72
4.797	1.72
4.799	1.72
4.800	1.71
4.801	1.71
4.803	1.71
4.805	1.71
4.806	1.71
4.807	1.71
4.809	1.71
4.811	1.71
4.812	1.71
4.813	1.71
4.815	1.71
4.817	1.70
4.818	1.71
4.819	1.71
4.821	1.70
4.823	1.70
4.824	1.70
4.826	1.70
4.827	1.70
4.828	1.70
4.830	1.70
4.832	1.70
4.833	1.70
4.834	1.70
4.836	1.70
4.838	1.70
4.839	1.70
4.840	1.70
4.842	1.70
4.844	1.70
4.845	1.70
4.846	1.70
4.848	1.70
4.850	1.70
4.851	1.70
4.852	1.70
4.854	1.70
4.856	1.70
4.857	1.70
4.859	1.70
4.860	1.70
4.861	1.70
4.863	1.70
4.865	1.70
4.866	1.70
4.867	1.70
4.869	1.70
4.871	1.70
4.872	1.70
4.873	1.70
4.875	1.70
4.877	1.70
4.878	1.70
4.879	1.70
4.881	1.70
4.883	1.70
4.884	1.70
4.885	1.70
4.887	1.70
4.889	1.70
4.890	1.70
4.891	1.69
4.893	1.69
4.894	1.69
4.896	1.69
4.898	1.69
4.899	1.69
4.900	1.69
4.902	1.69
4.904	1.69
4.905	1.69
4.906	1.69
4.908	1.69
4.910	1.69
4.911	1.68
4.912	1.68
4.914	1.68
4.916	1.68
4.917	1.68
4.918	1.68
4.920	1.68
4.922	1.68
4.923	1.68
4.924	1.68
4.926	1.67
4.927	1.67
4.929	1.67
4.931	1.67
4.932	1.67
4.933	1.67
4.935	1.67
4.937	1.67
4.938	1.67
4.939	1.67
4.941	1.66
4.943	1.66
4.944	1.66
4.945	1.66
4.947	1.66
4.949	1.66
4.950	1.65
4.951	1.65
4.953	1.65
4.955	1.65
4.956	1.65
4.957	1.64
4.959	1.64
4.960	1.64
4.962	1.64
4.964	1.64
4.965	1.64
4.966	1.63
4.968	1.63
4.970	1.63
4.971	1.63
4.972	1.63
4.974	1.62
4.976	1.62
4.977	1.62
4.978	1.62
4.980	1.62
4.982	1.62
4.983	1.62
4.984	1.61
4.986	1.61
4.988	1.61
4.989	1.61
4.990	1.61
4.992	1.60
4.994	1.60
4.995	1.60
4.997	1.60
4.998	1.60
4.999	1.60
5.001	1.60
5.003	1.60
5.004	1.59
5.005	1.59
5.007	1.59
5.009	1.59
5.010	1.59
5.011	1.59
5.013	1.59
5.015	1.59
5.016	1.59
5.017	1.59
5.019	1.59
5.021	1.59
5.022	1.59
5.023	1.58
5.025	1.58
5.027	1.58
5.028	1.58
5.030	1.58
5.031	1.58
5.032	1.58
5.034	1.58
5.036	1.58
5.037	1.58
5.038	1.58
5.040	1.58
5.042	1.58
5.043	1.58
5.044	1.58
5.046	1.58
5.048	1.58
5.049	1.58
5.050	1.58
5.052	1.58
5.054	1.58
5.055	1.58
5.056	1.57
5.058	1.57
5.060	1.58
5.061	1.58
5.063	1.58
5.064	1.58
5.065	1.58
5.067	1.57
5.069	1.57
5.070	1.57
5.071	1.57
5.073	1.57
5.075	1.57
5.076	1.57
5.077	1.57
5.079	1.57
5.081	1.58
5.082	1.57
5.083	1.57
5.085	1.57
5.087	1.57
5.088	1.57
5.089	1.57
5.091	1.57
5.093	1.57
5.094	1.57
5.095	1.57
5.097	1.57
5.098	1.57
5.100	1.57
5.102	1.57
5.103	1.57
5.104	1.57
5.106	1.57
5.108	1.57
5.109	1.57
5.110	1.57
5.112	1.57
5.114	1.57
5.115	1.57
5.116	1.57
5.118	1.57
5.120	1.57
5.121	1.57
5.122	1.57
5.124	1.57
5.126	1.57
5.127	1.57
5.128	1.56
5.130	1.56
5.131	1.56
5.133	1.56
5.135	1.56
5.136	1.56
5.137	1.56
5.139	1.56
5.141	1.56
5.142	1.56
5.143	1.55
5.145	1.55
5.147	1.55
5.148	1.55
5.149	1.55
5.151	1.54
5.153	1.54
5.154	1.54
5.155	1.54
5.157	1.54
5.159	1.54
5.160	1.53
5.161	1.53
5.163	1.53
5.165	1.53
5.166	1.53
5.168	1.52
5.169	1.52
5.170	1.52
5.172	1.52
5.174	1.52
5.175	1.52
5.176	1.51
5.178	1.51
5.180	1.51
5.181	1.51
5.182	1.51
5.184	1.50
5.186	1.50
5.187	1.50
5.188	1.50
5.190	1.50
5.192	1.49
5.193	1.49
5.194	1.49
5.196	1.49
5.198	1.49
5.199	1.49
5.201	1.49
5.202	1.48
5.203	1.48
5.205	1.48
5.207	1.48
5.208	1.48
5.209	1.47
5.211	1.47
5.213	1.47
5.214	1.47
5.215	1.47
5.217	1.47
5.219	1.47
5.220	1.47
5.221	1.46
5.223	1.46
5.225	1.46
5.226	1.46
5.227	1.46
5.229	1.46
5.231	1.46
5.232	1.46
5.234	1.46
5.235	1.45
5.236	1.45
5.238	1.45
5.240	1.45
5.241	1.45
5.242	1.45
5.244	1.44
5.246	1.44
5.247	1.44
5.248	1.44
5.250	1.44
5.252	1.43
5.253	1.43
5.254	1.43
5.256	1.43
5.258	1.43
5.259	1.43
5.260	1.43
5.262	1.42
5.264	1.42
5.265	1.42
5.266	1.42
5.268	1.41
5.269	1.41
5.271	1.41
5.273	1.40
5.274	1.40
5.275	1.40
5.277	1.40
5.279	1.40
5.280	1.39
5.281	1.39
5.283	1.39
5.285	1.38
5.286	1.38
5.287	1.38
5.289	1.37
5.291	1.37
5.292	1.37
5.293	1.37
5.295	1.36
5.297	1.36
5.298	1.36
5.299	1.36
5.301	1.35
5.302	1.35
5.304	1.34
5.306	1.34
5.307	1.34
5.308	1.34
5.310	1.33
5.312	1.33
5.313	1.33
5.314	1.33
5.316	1.32
5.318	1.32
5.319	1.32
5.320	1.32
5.322	1.31
5.324	1.31
5.325	1.31
5.326	1.30
5.328	1.30
5.330	1.30
5.331	1.30
5.332	1.30
5.334	1.29
5.335	1.29
5.337	1.29
5.339	1.29
5.340	1.29
5.341	1.28
5.343	1.28
5.345	1.28
5.346	1.28
5.347	1.27
5.349	1.27
5.351	1.27
5.352	1.27
5.353	1.27
5.355	1.26
5.357	1.26
5.358	1.26
5.359	1.26
5.361	1.26
5.363	1.26
5.364	1.26
5.365	1.26
5.367	1.25
5.369	1.25
5.370	1.25
5.372	1.25
5.373	1.25
5.374	1.25
5.376	1.25
5.378	1.25
5.379	1.25
5.380	1.25
5.382	1.25
5.384	1.25
5.385	1.25
5.386	1.25
5.388	1.25
5.390	1.25
5.391	1.25
5.392	1.25
5.394	1.25
5.396	1.25
5.397	1.25
5.398	1.25
5.400	1.25
5.402	1.25
5.403	1.25
5.405	1.25
5.406	1.25
5.407	1.25
5.409	1.25
5.411	1.25
5.412	1.25
5.413	1.25
5.415	1.25
5.417	1.25
5.418	1.25
5.419	1.25
5.421	1.25
5.423	1.25
5.424	1.25
5.425	1.25
5.427	1.25
5.429	1.25
5.430	1.25
5.431	1.26
5.433	1.25
5.435	1.26
5.436	1.25
5.438	1.26
5.439	1.26
5.440	1.26
5.442	1.26
5.444	1.26
5.445	1.26
5.446	1.26
5.448	1.26
5.450	1.26
5.451	1.26
5.452	1.26
5.454	1.26
5.456	1.26
5.457	1.26
5.458	1.26
5.460	1.26
5.462	1.26
5.463	1.26
5.464	1.26
5.466	1.27
5.468	1.27
5.469	1.27
5.470	1.27
5.472	1.27
5.473	1.27
5.475	1.27
5.477	1.27
5.478	1.28
5.479	1.28
5.481	1.28
5.483	1.28
5.484	1.28
5.485	1.28
5.487	1.28
5.489	1.28
5.490	1.28
5.491	1.28
5.493	1.28
5.495	1.29
5.496	1.29
5.497	1.29
5.499	1.29
5.501	1.29
5.502	1.29
5.503	1.29
5.505	1.29
5.506	1.29
5.508	1.30
5.510	1.30
5.511	1.30
5.512	1.30
5.514	1.30
5.516	1.30
5.517	1.31
5.518	1.31
5.520	1.31
5.522	1.31
5.523	1.31
5.524	1.31
5.526	1.31
5.528	1.31
5.529	1.32
5.530	1.32
5.532	1.32
5.534	1.32
5.535	1.32
5.536	1.32
5.538	1.33
5.540	1.33
5.541	1.33
5.543	1.33
5.544	1.33
5.545	1.33
5.547	1.33
5.549	1.33
5.550	1.34
5.551	1.34
5.553	1.34
5.555	1.34
5.556	1.34
5.557	1.34
5.559	1.35
5.561	1.35
5.562	1.35
5.563	1.35
5.565	1.35
5.567	1.35
5.568	1.35
5.569	1.35
5.571	1.35
5.573	1.36
5.574	1.36
5.576	1.36
5.577	1.36
5.578	1.36
5.580	1.36
5.582	1.36
5.583	1.36
5.584	1.37
5.586	1.37
5.588	1.37
5.589	1.37
5.590	1.37
5.592	1.37
5.594	1.37
5.595	1.37
5.596	1.38
5.598	1.38
5.600	1.38
5.601	1.38
5.602	1.38
5.604	1.38
5.606	1.38
5.607	1.38
5.609	1.38
5.610	1.38
5.611	1.38
5.613	1.39
5.615	1.39
5.616	1.39
5.617	1.39
5.619	1.39
5.621	1.39
5.622	1.39
5.623	1.39
5.625	1.39
5.627	1.39
5.628	1.39
5.629	1.39
5.631	1.39
5.633	1.39
5.634	1.39
5.635	1.40
5.637	1.40
5.639	1.40
5.640	1.40
5.641	1.40
5.643	1.40
5.644	1.40
5.646	1.40
5.648	1.40
5.649	1.40
5.650	1.40
5.652	1.40
5.654	1.40
5.655	1.40
5.656	1.40
5.658	1.40
5.660	1.40
5.661	1.40
5.662	1.40
5.664	1.40
5.666	1.40
5.667	1.40
5.668	1.40
5.670	1.40
5.672	1.40
5.673	1.40
5.674	1.40
5.676	1.40
5.677	1.40
5.679	1.40
5.681	1.40
5.682	1.40
5.683	1.40
5.685	1.40
5.687	1.40
5.688	1.40
5.689	1.40
5.691	1.40
5.693	1.40
5.694	1.40
5.695	1.40
5.697	1.40
5.699	1.40
5.700	1.40
5.701	1.40
5.703	1.40
5.705	1.40
5.706	1.40
5.707	1.40
5.709	1.40
5.710	1.40
5.712	1.40
5.714	1.40
5.715	1.40
5.716	1.40
5.718	1.40
5.720	1.40
5.721	1.40
5.722	1.40
5.724	1.40
5.726	1.40
5.727	1.40
5.728	1.40
5.730	1.40
5.732	1.40
5.733	1.40
5.734	1.40
5.736	1.40
5.738	1.40
5.739	1.40
5.740	1.40
5.742	1.40
5.744	1.40
5.745	1.40
5.747	1.40
5.748	1.40
5.749	1.40
5.751	1.40
5.753	1.40
5.754	1.40
5.755	1.40
5.757	1.40
5.759	1.40
5.760	1.40
5.761	1.40
5.763	1.40
5.765	1.40
5.766	1.40
5.767	1.40
5.769	1.40
5.771	1.40
5.772	1.40
5.773	1.40
5.775	1.40
5.777	1.40
5.778	1.40
5.780	1.40
5.781	1.40
5.782	1.40
5.784	1.40
5.786	1.40
5.787	1.40
5.788	1.40
5.790	1.40
5.792	1.40
5.793	1.41
5.794	1.41
5.796	1.41
5.798	1.41
5.799	1.41
5.800	1.41
5.802	1.41
5.804	1.41
5.805	1.41
5.806	1.41
5.808	1.41
5.810	1.41
5.811	1.41
5.813	1.41
5.814	1.41
5.815	1.41
5.817	1.41
5.819	1.41
5.820	1.41
5.821	1.41
5.823	1.41
5.825	1.41
5.826	1.41
5.827	1.41
5.829	1.41
5.831	1.41
5.832	1.41
5.833	1.41
5.835	1.41
5.837	1.41
5.838	1.41
5.839	1.41
5.841	1.41
5.843	1.41
5.844	1.41
5.845	1.41
5.847	1.41
5.848	1.42
5.850	1.42
5.852	1.42
5.853	1.42
5.854	1.42
5.856	1.42
5.858	1.42
5.859	1.41
5.860	1.42
5.862	1.41
5.864	1.41
5.865	1.42
5.866	1.42
5.868	1.42
5.870	1.42
5.871	1.42
5.872	1.42
5.874	1.42
5.876	1.42
5.877	1.42
5.878	1.41
5.880	1.41
5.881	1.42
5.883	1.41
5.885	1.41
5.886	1.42
5.887	1.42
5.889	1.42
5.891	1.42
5.892	1.42
5.893	1.42
5.895	1.42
5.897	1.41
5.898	1.41
5.899	1.41
5.901	1.41
5.903	1.41
5.904	1.41
5.905	1.41
5.907	1.41
5.909	1.41
5.910	1.41
5.911	1.41
5.913	1.41
5.915	1.41
5.916	1.41
5.918	1.41
5.919	1.41
5.920	1.41
5.922	1.41
5.924	1.41
5.925	1.41
5.926	1.41
5.928	1.41
5.930	1.41
5.931	1.41
5.932	1.41
5.934	1.41
5.936	1.41
5.937	1.41
5.938	1.41
5.940	1.41
5.942	1.41
5.943	1.41
5.944	1.41
5.946	1.41
5.948	1.41
5.949	1.41
5.951	1.41
5.952	1.41
5.953	1.41
5.955	1.41
5.957	1.41
5.958	1.41
5.959	1.40
5.961	1.41
5.963	1.40
5.964	1.40
5.965	1.41
5.967	1.41
5.969	1.41
5.970	1.41
5.971	1.41
5.973	1.41
5.975	1.41
5.976	1.41
5.977	1.41
5.979	1.40
5.981	1.40
5.982	1.40
5.984	1.40
5.985	1.40
5.986	1.40
5.988	1.40
5.990	1.40
5.991	1.40
5.992	1.40
5.994	1.40
5.996	1.40
5.997	1.40
5.998	1.40
6.000	1.39
6.002	1.39
6.003	1.39
6.004	1.39
6.006	1.39
6.008	1.39
6.009	1.39
6.010	1.39
6.012	1.39
6.014	1.39
6.015	1.39
6.016	1.39
6.018	1.39
6.019	1.38
6.021	1.38
6.023	1.38
6.024	1.38
6.025	1.38
6.027	1.38
6.029	1.38
6.030	1.38
6.031	1.38
6.033	1.38
6.035	1.38
6.036	1.38
6.037	1.38
6.039	1.37
6.041	1.37
6.042	1.37
6.043	1.37
6.045	1.37
6.047	1.37
6.048	1.37
6.049	1.37
6.051	1.37
6.052	1.37
6.054	1.37
6.056	1.37
6.057	1.36
6.058	1.36
6.060	1.36
6.062	1.36
6.063	1.36
6.064	1.36
6.066	1.36
6.068	1.36
6.069	1.36
6.070	1.36
6.072	1.36
6.074	1.36
6.075	1.36
6.076	1.35
6.078	1.35
6.080	1.35
6.081	1.35
6.082	1.35
6.084	1.35
6.085	1.35
6.087	1.35
6.089	1.35
6.090	1.35
6.091	1.35
6.093	1.35
6.095	1.35
6.096	1.34
6.097	1.34
6.099	1.34
6.101	1.34
6.102	1.34
6.103	1.34
6.105	1.34
6.107	1.34
6.108	1.34
6.109	1.34
6.111	1.34
6.113	1.34
6.114	1.34
6.115	1.34
6.117	1.34
6.119	1.33
6.120	1.33
6.122	1.33
6.123	1.33
6.124	1.33
6.126	1.33
6.128	1.33
6.129	1.33
6.130	1.33
6.132	1.33
6.134	1.33
6.135	1.33
6.136	1.33
6.138	1.32
6.140	1.32
6.141	1.32
6.142	1.32
6.144	1.32
6.146	1.32
6.147	1.32
6.148	1.32
6.150	1.32
6.152	1.32
6.153	1.32
6.155	1.32
6.156	1.31
6.157	1.31
6.159	1.31
6.161	1.31
6.162	1.31
6.163	1.31
6.165	1.31
6.167	1.31
6.168	1.31
6.169	1.31
6.171	1.31
6.173	1.31
6.174	1.31
6.175	1.31
6.177	1.30
6.179	1.30
6.180	1.30
6.181	1.30
6.183	1.30
6.185	1.30
6.186	1.30
6.188	1.30
6.189	1.30
6.190	1.30
6.192	1.30
6.194	1.30
6.195	1.30
6.196	1.30
6.198	1.30
6.200	1.30
6.201	1.30
6.202	1.30
6.204	1.30
6.206	1.30
6.207	1.30
6.208	1.30
6.210	1.30
6.212	1.29
6.213	1.30
6.214	1.29
6.216	1.29
6.218	1.29
6.219	1.29
6.220	1.29
6.222	1.29
6.223	1.29
6.225	1.29
6.227	1.29
6.228	1.29
6.229	1.29
6.231	1.29
6.233	1.29
6.234	1.29
6.235	1.29
6.237	1.29
6.239	1.29
6.240	1.29
6.241	1.29
6.243	1.29
6.245	1.29
6.246	1.29
6.247	1.29
6.249	1.29
6.251	1.29
6.252	1.29
6.253	1.29
6.255	1.28
6.256	1.28
6.258	1.28
6.260	1.28
6.261	1.28
6.262	1.28
6.264	1.28
6.266	1.28
6.267	1.28
6.268	1.28
6.270	1.28
6.272	1.28
6.273	1.28
6.274	1.28
6.276	1.28
6.278	1.28
6.279	1.28
6.280	1.28
6.282	1.28
6.284	1.28
6.285	1.28
6.286	1.28
6.288	1.27
6.290	1.27
6.291	1.27
6.293	1.27
6.294	1.27
6.295	1.27
6.297	1.27
6.299	1.27
6.300	1.27
6.301	1.27
6.303	1.27
6.305	1.27
6.306	1.27
6.307	1.27
6.309	1.27
6.311	1.27
6.312	1.26
6.313	1.26
6.315	1.26
6.317	1.26
6.318	1.26
6.319	1.26
6.321	1.26
6.323	1.26
6.324	1.26
6.326	1.26
6.327	1.26
6.328	1.26
6.330	1.26
6.332	1.26
6.333	1.26
6.334	1.25
6.336	1.25
6.338	1.25
6.339	1.25
6.340	1.25
6.342	1.25
6.344	1.25
6.345	1.25
6.346	1.25
6.348	1.25
6.350	1.25
6.351	1.25
6.352	1.25
6.354	1.25
6.356	1.25
6.357	1.25
6.359	1.25
6.360	1.25
6.361	1.25
6.363	1.25
6.365	1.25
6.366	1.25
6.367	1.24
6.369	1.24
6.371	1.24
6.372	1.24
6.373	1.24
6.375	1.24
6.377	1.24
6.378	1.24
6.379	1.23
6.381	1.23
6.383	1.23
6.384	1.23
6.385	1.23
6.387	1.23
6.389	1.23
6.390	1.23
6.391	1.23
6.393	1.22
6.394	1.22
6.396	1.22
6.398	1.22
6.399	1.22
6.400	1.22
6.402	1.22
6.404	1.22
6.405	1.22
6.406	1.22
6.408	1.22
6.410	1.22
6.411	1.22
6.412	1.21
6.414	1.21
6.416	1.21
6.417	1.21
6.418	1.21
6.420	1.21
6.422	1.21
6.423	1.21
6.424	1.21
6.426	1.21
6.427	1.21
6.429	1.20
6.431	1.20
6.432	1.20
6.433	1.20
6.435	1.20
6.437	1.20
6.438	1.20
6.439	1.20
6.441	1.20
6.443	1.20
6.444	1.20
6.445	1.20
6.447	1.20
6.449	1.20
6.450	1.20
6.451	1.20
6.453	1.19
6.455	1.20
6.456	1.19
6.457	1.19
6.459	1.19
6.460	1.19
6.462	1.19
6.464	1.19
6.465	1.19
6.466	1.19
6.468	1.19
6.470	1.19
6.471	1.19
6.472	1.19
6.474	1.19
6.476	1.19
6.477	1.19
6.478	1.19
6.480	1.19
6.482	1.19
6.483	1.19
6.484	1.19
6.486	1.19
6.488	1.19
6.489	1.19
6.490	1.18
6.492	1.19
6.494	1.19
6.495	1.18
6.497	1.18
6.498	1.18
6.499	1.18
6.501	1.18
6.503	1.18
6.504	1.18
6.505	1.18
6.507	1.18
6.509	1.18
6.510	1.18
6.511	1.18
6.513	1.18
6.515	1.18
6.516	1.18
6.517	1.18
6.519	1.18
6.521	1.18
6.522	1.18
6.523	1.18
6.525	1.18
6.527	1.18
6.528	1.18
6.530	1.18
6.531	1.18
6.532	1.17
6.534	1.18
6.536	1.18
6.537	1.17
6.538	1.17
6.540	1.17
6.542	1.18
6.543	1.17
6.544	1.17
6.546	1.17
6.548	1.17
6.549	1.17
6.550	1.17
6.552	1.17
6.554	1.17
6.555	1.17
6.556	1.17
6.558	1.17
6.560	1.17
6.561	1.16
6.563	1.16
6.564	1.16
6.565	1.16
6.567	1.16
6.569	1.16
6.570	1.16
6.571	1.16
6.573	1.16
6.575	1.16
6.576	1.16
6.577	1.16
6.579	1.16
6.581	1.15
6.582	1.15
6.583	1.15
6.585	1.15
6.587	1.15
6.588	1.15
6.589	1.15
6.591	1.15
6.593	1.14
6.594	1.14
6.595	1.14
6.597	1.14
6.598	1.14
6.600	1.14
6.602	1.14
6.603	1.14
6.604	1.14
6.606	1.14
6.608	1.14
6.609	1.13
6.610	1.13
6.612	1.13
6.614	1.13
6.615	1.13
6.616	1.13
6.618	1.13
6.620	1.13
6.621	1.13
6.622	1.13
6.624	1.12
6.626	1.12
6.627	1.12
6.628	1.12
6.630	1.12
6.631	1.12
6.633	1.12
6.635	1.12
6.636	1.12
6.637	1.12
6.639	1.11
6.641	1.11
6.642	1.11
6.643	1.11
6.645	1.11
6.647	1.11
6.648	1.11
6.649	1.11
6.651	1.10
6.653	1.10
6.654	1.10
6.655	1.10
6.657	1.10
6.659	1.10
6.660	1.10
6.661	1.10
6.663	1.10
6.665	1.10
6.666	1.10
6.668	1.09
6.669	1.09
6.670	1.09
6.672	1.09
6.674	1.09
6.675	1.09
6.676	1.09
6.678	1.09
6.680	1.09
6.681	1.09
6.682	1.09
6.684	1.09
6.686	1.08
6.687	1.08
6.688	1.08
6.690	1.08
6.692	1.08
6.693	1.08
6.694	1.08
6.696	1.08
6.698	1.08
6.699	1.08
6.701	1.08
6.702	1.08
6.703	1.07
6.705	1.07
6.707	1.07
6.708	1.07
6.709	1.07
6.711	1.07
6.713	1.07
6.714	1.07
6.715	1.07
6.717	1.07
6.719	1.06
6.720	1.07
6.721	1.07
6.723	1.06
6.725	1.06
6.726	1.06
6.727	1.06
6.729	1.06
6.731	1.06
6.732	1.06
6.734	1.06
6.735	1.06
6.736	1.06
6.738	1.06
6.740	1.06
6.741	1.06
6.742	1.06
6.744	1.05
6.746	1.05
6.747	1.05
6.748	1.05
6.750	1.05
6.752	1.05
6.753	1.05
6.754	1.05
6.756	1.05
6.758	1.05
6.759	1.05
6.760	1.05
6.762	1.04
6.764	1.04
6.765	1.04
6.766	1.04
6.768	1.04
6.769	1.04
6.771	1.04
6.773	1.04
6.774	1.04
6.775	1.04
6.777	1.04
6.779	1.04
6.780	1.04
6.781	1.04
6.783	1.03
6.785	1.03
6.786	1.03
6.787	1.03
6.789	1.03
6.791	1.03
6.792	1.03
6.793	1.03
6.795	1.03
6.797	1.03
6.798	1.02
6.799	1.02
6.801	1.02
6.802	1.02
6.804	1.02
6.806	1.02
6.807	1.02
6.808	1.02
6.810	1.01
6.812	1.01
6.813	1.01
6.814	1.02
6.816	1.01
6.818	1.01
6.819	1.01
6.820	1.01
6.822	1.01
6.824	1.01
6.825	1.01
6.826	1.01
6.828	1.00
6.830	1.00
6.831	1.00
6.832	1.00
6.834	1.00
6.835	1.00
6.837	1.00
6.839	1.00
6.840	1.00
6.841	1.00
6.843	1.00
6.845	1.00
6.846	1.00
6.847	0.99
6.849	0.99
6.851	0.99
6.852	0.99
6.853	0.99
6.855	0.99
6.857	0.99
6.858	0.99
6.859	0.99
6.861	0.99
6.863	0.99
6.864	0.99
6.865	0.99
6.867	0.99
6.869	0.99
6.870	0.98
6.872	0.98
6.873	0.98
6.874	0.99
6.876	0.98
6.878	0.98
6.879	0.98
6.880	0.98
6.882	0.98
6.884	0.98
6.885	0.98
6.886	0.98
6.888	0.98
6.890	0.97
6.891	0.98
6.892	0.97
6.894	0.97
6.896	0.97
6.897	0.97
6.898	0.97
6.900	0.97
6.902	0.97
6.903	0.97
6.905	0.97
6.906	0.96
6.907	0.96
6.909	0.96
6.911	0.96
6.912	0.96
6.913	0.96
6.915	0.96
6.917	0.96
6.918	0.96
6.919	0.96
6.921	0.96
6.923	0.96
6.924	0.96
6.925	0.95
6.927	0.95
6.929	0.95
6.930	0.95
6.931	0.95
6.933	0.95
6.935	0.95
6.936	0.95
6.938	0.95
6.939	0.95
6.940	0.95
6.942	0.94
6.944	0.94
6.945	0.94
6.946	0.94
6.948	0.94
6.950	0.94
6.951	0.94
6.952	0.94
6.954	0.94
6.956	0.94
6.957	0.94
6.958	0.94
6.960	0.94
6.962	0.93
6.963	0.93
6.964	0.93
6.966	0.93
6.968	0.93
6.969	0.93
6.970	0.93
6.972	0.93
6.973	0.93
6.975	0.93
6.977	0.93
6.978	0.92
6.979	0.92
6.981	0.92
6.983	0.92
6.984	0.92
6.985	0.92
6.987	0.92
6.989	0.92
6.990	0.92
6.991	0.91
6.993	0.91
6.995	0.91
6.996	0.91
6.997	0.91
6.999	0.91
